File: Data/Selected_data/SSP_2025-03-20_D9_OPER.csv
Crossheadmm,LoadN,Timesec
0.0368,0.814219,0.122
0.2036,1.31021,0.622
0.3703,1.80856,1.122
0.5372,1.96382,1.622
0.7035,2.59494,2.122
0.8704,3.29659,2.622
1.0369,3.99809,3.122
1.2032,5.00314,3.622
1.3703,6.12811,4.122
1.5369,7.6017,4.622
1.7035,9.5061,5.122
1.8703,11.4217,5.622
2.0368,14.1178,6.122
2.2036,17.0184,6.622
2.3706,20.3194,7.122
2.5368,24.0516,7.622
2.7037,28.7219,8.122
2.8703,33.1627,8.622
3.0371,38.1612,9.122
3.2041,43.4546,9.622
3.3701,48.7621,10.122
3.5372,54.3803,10.622
3.704,60.1576,11.122
3.8705,62.9615,11.622
4.0374,68.7228,12.122
4.204,73.4833,12.622
4.3704,69.4145,13.122
4.5371,75.9095,13.622
4.7035,79.5667,14.122
4.8704,84.0309,14.622
5.0369,82.7605,15.122
5.2035,84.7713,15.622
5.3702,87.772,16.122
5.5367,80.2662,16.622
5.7038,81.7742,17.122
5.8704,60.0766,17.622
6.0367,65.6538,18.122
6.2036,70.2882,18.622
6.3703,72.669,19.122
6.5367,74.984,19.622
6.7035,75.6007,20.122
6.8702,73.4548,20.622
7.037,81.4362,21.122
7.2037,90.7286,21.622
7.3701,100.589,22.122
7.5371,110.772,22.622
7.7039,118.102,23.122
7.8703,128.021,23.622
8.0372,137.066,24.122
8.2036,136.521,24.622
8.3703,142.98,25.122
8.5373,142.006,25.622
8.7036,136.513,26.122
8.8704,144.082,26.622
9.0371,146.684,27.122
9.2036,156.549,27.622
9.3702,156.535,28.122
9.5369,162.835,28.622
9.7036,167.06,29.122
9.8703,171.66,29.622
10.0367,165.716,30.122
10.2036,168.451,30.622
10.3705,174.861,31.122
10.5366,176.656,31.622
10.7036,181.892,32.122
10.8701,168.732,32.622
11.0367,169.522,33.122
11.2036,166.549,33.622
11.3702,163.074,34.122
11.5367,162.523,34.622
11.7036,162.728,35.122
11.8701,153.517,35.622
12.0371,152.171,36.122
12.2035,149.712,36.622
12.3704,147.654,37.122
12.5372,146.061,37.622
12.7035,143.621,38.122
12.8708,142.36,38.622
13.0373,119.719,39.122
13.2036,116.246,39.622
13.3705,116.717,40.122
13.537,115.026,40.622
13.7037,114.699,41.122
13.8704,103.087,41.622
14.0369,95.9576,42.122
14.2038,93.0362,42.622
14.3703,89.6134,43.122
14.5368,88.0063,43.622
14.7036,87.2238,44.122
14.8701,86.3419,44.622
15.0369,85.4387,45.122
15.2036,84.0473,45.622
15.3699,82.7413,46.122
15.537,80.5034,46.622
15.7036,72.8641,47.122
15.8702,72.3042,47.622
16.037,73.393,48.122
16.2035,73.0754,48.622
16.3704,72.4013,49.122
16.5369,72.2418,49.622
16.7038,72.1746,50.122
16.8706,71.9689,50.622
17.0371,72.3181,51.122
17.2038,72.2989,51.622
17.3705,72.7143,52.122
17.5371,73.3062,52.622
17.7036,73.8258,53.122
17.8707,73.8376,53.622
18.0372,74.213,54.122
18.2039,74.4127,54.622
18.3705,74.811,55.122
18.5371,74.7885,55.622
18.7036,74.7603,56.122
18.8701,74.5349,56.622
19.0368,74.2635,57.122
19.2035,73.48,57.622
19.3699,71.4282,58.122
19.5368,68.439,58.622
19.7034,66.5215,59.122
19.8701,65.0438,59.622
20.0371,64.4042,60.122
20.2036,63.1118,60.622
20.3702,60.9792,61.122
20.5371,59.1033,61.622
20.7035,57.6818,62.122
20.8703,56.5928,62.622
21.0369,55.9032,63.122
21.2037,55.0514,63.622
21.3705,53.8731,64.122
21.5372,53.4989,64.622
21.7037,52.8782,65.122
21.8704,51.6074,65.622
22.0372,49.9447,66.122
22.204,48.1608,66.622
22.3706,46.3759,67.122
22.5369,45.5588,67.622
22.7039,44.4768,68.122
22.8705,44.1603,68.622
23.0372,43.5952,69.122
23.2038,42.0652,69.622
23.3705,40.05,70.122
23.5369,37.5767,70.622
23.7033,36.0918,71.122
23.8701,35.291,71.622
24.0369,34.764,72.122
24.2034,34.3575,72.622
24.3703,33.8329,73.122
24.5368,33.0841,73.622
24.7035,32.4423,74.122
24.8705,31.971,74.622
25.037,30.6648,75.122
25.2036,30.1141,75.622
25.3704,29.5766,76.122
25.5371,28.4327,76.622
25.7038,27.3039,77.122
25.8702,25.7571,77.622
26.0372,24.7433,78.122
26.2039,24.6324,78.622
26.3704,24.2339,79.122
26.5371,23.8396,79.622
26.7039,23.8045,80.122
26.8707,23.2831,80.622
27.0372,22.8754,81.122
27.2038,22.8253,81.622
27.3705,22.7272,82.122
27.537,22.0455,82.622
27.7037,20.2849,83.122
27.8704,16.367,83.622
28.037,15.1852,84.122
28.2036,13.3802,84.622
28.3703,13.2538,85.122
28.5367,12.8883,85.622
28.7037,12.8007,86.122
28.8703,12.521,86.622
29.0368,12.1461,87.122
29.2037,11.7957,87.622
29.3703,11.7583,88.122
29.5371,11.3947,88.622
29.7036,10.8928,89.122
29.8703,10.9718,89.622
30.0371,10.7618,90.122
30.2038,10.2044,90.622
30.3705,9.87341,91.122
30.5374,9.57466,91.622
30.7037,9.42265,92.122
30.8705,9.48583,92.622
31.0372,9.34808,93.122
31.2037,9.09492,93.622
31.3704,8.97097,94.122
31.5372,8.94046,94.622
31.7038,8.8068,95.122
31.8704,8.72494,95.622
32.0374,8.39247,96.122
32.2039,8.32633,96.622
32.3703,8.51594,97.122
32.5369,8.50412,97.622
32.7037,8.4208,98.122
32.8703,8.74437,98.622
33.0368,8.91776,99.122
33.2036,8.80584,99.622
33.3703,8.78316,100.122
33.537,8.92778,100.622
33.7035,8.64795,101.122
33.8701,8.47484,101.622
34.037,8.60155,102.122
34.2036,8.70105,102.622
34.3703,8.6268,103.122
34.5371,8.63362,103.622
34.7037,8.54552,104.122
34.8706,8.41553,104.622
35.0372,8.51012,105.122
35.2038,8.19312,105.622
35.3706,7.98402,106.122
35.5373,7.97569,106.622
35.7036,7.7451,107.122
35.8707,7.84993,107.622
36.0371,7.86694,108.122
36.2039,7.75331,108.622
36.3705,7.70096,109.122
36.5369,7.64962,109.622
36.7039,7.81086,110.122
36.8702,7.66326,110.622
37.0371,7.74106,111.122
37.2038,7.99745,111.622
37.3702,8.02865,112.122
37.537,8.04288,112.622
37.7037,8.24954,113.122
37.8698,8.2459,113.622
38.0368,8.24868,114.122
38.2033,8.33463,114.622
38.3701,8.27973,115.122
38.5368,8.33018,115.622
38.7035,7.80789,116.122
38.8704,7.9144,116.622
39.0371,7.96614,117.122
39.204,7.90382,117.622
39.3707,7.76689,118.122
39.537,7.62,118.622
39.704,7.12584,119.122
39.8706,6.50025,119.622
40.0371,5.01682,120.122
40.2039,4.18997,120.622
40.3705,3.72927,121.122
40.5372,3.48546,121.622
40.704,3.40498,122.122
40.8702,3.38685,122.622
41.0371,3.42069,123.122
41.2038,3.56817,123.622
41.3703,3.59963,124.122
41.5371,3.32249,124.622
41.7034,3.4699,125.122
41.8702,3.5212,125.622
42.0371,3.45611,126.122
42.2035,3.52756,126.622
42.3702,3.4467,127.122
42.537,3.19007,127.622
42.7033,3.31063,128.122
42.87,3.3795,128.622
43.0369,3.24009,129.122
43.2037,3.36997,129.622
43.3705,2.88795,130.122
43.537,2.58354,130.622
43.7038,2.57378,131.122