File: Data/Selected_data/SSP_2022-12-06_B10_NO.csv
Crossheadmm,LoadN,Timesec
0.0,0.78,0.000
0.01,1.26,0.200
0.03,1.37,0.400
0.05,1.65,0.600
0.06,1.98,0.800
0.08,2.32,1.000
0.1,2.75,1.200
0.11,2.91,1.400
0.13,3.31,1.600
0.15,3.76,1.800
0.16,4.18,2.000
0.18,4.69,2.200
0.2,5.39,2.400
0.21,5.57,2.600
0.23,6.08,2.800
0.25,6.66,3.000
0.26,7.24,3.200
0.28,8.11,3.400
0.3,8.84,3.600
0.31,9.71,3.800
0.33,10.68,4.000
0.35,11.61,4.200
0.36,12.63,4.400
0.38,13.51,4.600
0.4,14.62,4.800
0.41,15.77,5.000
0.43,16.9,5.200
0.45,18.03,5.400
0.46,19.4,5.600
0.48,20.55,5.800
0.5,21.92,6.000
0.51,23.19,6.200
0.53,24.76,6.400
0.55,26.27,6.600
0.56,27.83,6.800
0.58,29.38,7.000
0.6,30.91,7.200
0.61,32.61,7.400
0.63,34.22,7.600
0.65,35.84,7.800
0.66,37.59,8.000
0.68,39.59,8.200
0.7,41.44,8.400
0.71,43.33,8.600
0.73,45.14,8.800
0.75,46.94,9.000
0.76,48.99,9.200
0.78,50.95,9.400
0.8,53.04,9.600
0.81,55.11,9.800
0.83,57.26,10.000
0.85,59.52,10.200
0.86,61.7,10.400
0.88,63.85,10.600
0.9,66.34,10.800
0.91,68.72,11.000
0.93,71.23,11.200
0.95,73.69,11.400
0.96,76.15,11.600
0.98,78.63,11.800
1.0,81.15,12.000
1.01,83.72,12.200
1.03,86.35,12.400
1.05,89.08,12.600
1.06,91.65,12.800
1.08,94.37,13.000
1.1,97.28,13.200
1.11,100.19,13.400
1.13,103.04,13.600
1.15,106.0,13.800
1.16,108.81,14.000
1.18,111.88,14.200
1.2,115.0,14.400
1.21,117.9,14.600
1.23,121.05,14.800
1.25,124.26,15.000
1.26,127.13,15.200
1.28,130.49,15.400
1.3,133.59,15.600
1.31,136.82,15.800
1.33,139.89,16.000
1.35,137.92,16.200
1.36,141.43,16.400
1.38,144.91,16.600
1.4,148.34,16.800
1.41,151.64,17.000
1.43,155.05,17.200
1.45,158.47,17.400
1.46,161.69,17.600
1.48,165.18,17.800
1.5,168.51,18.000
1.51,171.73,18.200
1.53,174.85,18.400
1.55,178.14,18.600
1.56,181.48,18.800
1.58,184.56,19.000
1.6,187.73,19.200
1.61,189.46,19.400
1.63,151.29,19.600
1.65,156.37,19.800
1.66,160.74,20.000
1.68,165.3,20.200
1.7,169.66,20.400
1.71,174.11,20.600
1.73,178.46,20.800
1.75,182.79,21.000
1.76,186.86,21.200
1.78,190.96,21.400
1.8,194.87,21.600
1.81,198.85,21.800
1.83,202.59,22.000
1.85,206.28,22.200
1.86,209.84,22.400
1.88,213.49,22.600
1.9,217.19,22.800
1.91,220.72,23.000
1.93,224.27,23.200
1.95,227.83,23.400
1.96,231.77,23.600
1.98,235.13,23.800
2.0,238.96,24.000
2.01,242.39,24.200
2.03,246.0,24.400
2.05,249.57,24.600
2.06,253.24,24.800
2.08,256.93,25.000
2.1,260.55,25.200
2.11,264.04,25.400
2.13,267.73,25.600
2.15,271.27,25.800
2.16,274.85,26.000
2.18,278.49,26.200
2.2,281.89,26.400
2.21,285.51,26.600
2.23,289.1,26.800
2.25,292.7,27.000
2.26,296.27,27.200
2.28,300.03,27.400
2.3,303.84,27.600
2.31,307.49,27.800
2.33,311.31,28.000
2.35,314.77,28.200
2.36,318.66,28.400
2.38,322.38,28.600
2.4,326.2,28.800
2.41,330.0,29.000
2.43,333.72,29.200
2.45,337.51,29.400
2.46,341.19,29.600
2.48,345.05,29.800
2.5,348.82,30.000
2.51,352.49,30.200
2.53,356.05,30.400
2.55,359.77,30.600
2.56,363.38,30.800
2.58,367.05,31.000
2.59,370.6,31.200
2.61,374.16,31.400
2.63,377.65,31.600
2.65,381.1,31.800
2.66,384.79,32.000
2.68,388.06,32.200
2.7,391.5,32.400
2.71,395.01,32.600
2.73,398.27,32.800
2.75,401.75,33.000
2.76,405.06,33.200
2.78,408.47,33.400
2.8,411.67,33.600
2.81,415.15,33.800
2.83,418.19,34.000
2.85,421.45,34.200
2.86,424.45,34.400
2.88,427.71,34.600
2.9,430.99,34.800
2.91,434.01,35.000
2.93,437.04,35.200
2.95,440.05,35.400
2.96,443.04,35.600
2.98,446.09,35.800
3.0,448.98,36.000
3.01,452.04,36.200
3.03,454.68,36.400
3.05,457.57,36.600
3.06,460.35,36.800
3.08,463.01,37.000
3.1,465.56,37.200
3.11,468.21,37.400
3.13,469.62,37.600
3.15,472.49,37.800
3.16,474.98,38.000
3.18,477.37,38.200
3.2,479.58,38.400
3.21,481.7,38.600
3.23,483.05,38.800
3.25,480.32,39.000
3.26,-2.46,39.200