File: Data/Selected_data/SSP_2025-03-20_D10_NO.csv
Crossheadmm,LoadN,Timesec
0.0338,3.94944,0.113
0.1006,4.65288,0.313
0.1675,5.37697,0.513
0.2342,6.19665,0.713
0.3007,7.07407,0.913
0.3671,7.98465,1.113
0.4344,8.97773,1.313
0.5009,9.95355,1.513
0.5675,11.3987,1.713
0.6339,12.792,1.913
0.701,14.5249,2.113
0.7676,16.3438,2.313
0.834,18.0614,2.513
0.9007,20.0319,2.713
0.9677,22.8397,2.913
1.0343,25.1011,3.113
1.1008,27.8736,3.313
1.1673,30.8803,3.513
1.2344,34.0532,3.713
1.3009,37.6205,3.913
1.3674,40.8722,4.113
1.4341,44.6636,4.313
1.5009,49.0854,4.513
1.5674,53.0622,4.713
1.634,57.3183,4.913
1.7006,61.9956,5.113
1.7673,66.5386,5.313
1.8339,71.2144,5.513
1.9006,75.0272,5.713
1.9672,76.5706,5.913
2.0339,79.3077,6.113
2.1005,86.6115,6.313
2.1671,94.2779,6.513
2.2336,101.887,6.713
2.3006,109.382,6.913
2.3674,117.754,7.113
2.4337,126.026,7.313
2.5004,134.929,7.513
2.5672,144.236,7.713
2.6339,153.18,7.913
2.7004,162.324,8.113
2.7668,169.496,8.313
2.8341,171.17,8.513
2.9005,174.603,8.713
2.967,182.797,8.913
3.0335,188.887,9.113
3.1007,198.063,9.313
3.1672,205.806,9.513
3.2336,214.186,9.713
3.3003,217.385,9.913
3.3673,228.345,10.113
3.4339,239.939,10.313
3.5005,251.123,10.513
3.5669,262.597,10.713
3.634,275.214,10.913
3.7006,278.432,11.113
3.7672,275.22,11.313
3.8339,215.422,11.513
3.9007,219.34,11.713
3.9671,228.163,11.913
4.0339,239.871,12.113
4.1005,252.266,12.313
4.1673,260.467,12.513
4.2339,272.194,12.713
4.3006,280.764,12.913
4.3673,287.611,13.113
4.4339,298.684,13.313
4.5006,292.967,13.513
4.5672,274.042,13.713
4.6338,279.525,13.913
4.7008,278.331,14.113
4.7675,251.404,14.313
4.8339,257.887,14.513
4.9005,247.645,14.713
4.9674,248.826,14.913
5.0341,234.496,15.113
5.1006,227.914,15.313
5.1671,212.237,15.513
5.2343,214.27,15.713
5.3008,198.135,15.913
5.3673,199.786,16.113
5.4339,196.744,16.313
5.501,199.347,16.513
5.5674,188.687,16.713
5.6339,172.288,16.913
5.7006,131.081,17.113
5.7676,117.641,17.313
5.8342,121.595,17.513
5.9007,125.96,17.713
5.9672,125.27,17.913
6.0342,121.17,18.113
6.1007,124.357,18.313
6.1673,121.539,18.513
6.234,114.765,18.713
6.3008,112.091,18.913
6.3672,112.617,19.113
6.4339,104.287,19.313
6.5005,106.598,19.513
6.5672,96.1364,19.713
6.6339,95.4645,19.913
6.7005,77.2926,20.113
6.7672,74.6922,20.313
6.8339,67.6041,20.513
6.9005,68.0663,20.713
6.9671,66.7287,20.913
7.0336,62.3485,21.113
7.1006,64.132,21.313
7.1673,65.5819,21.513
7.2337,66.3165,21.713
7.3004,67.7,21.913
7.3672,67.5533,22.113
7.4339,67.5043,22.313
7.5004,67.021,22.513
7.5669,65.7985,22.713
7.6341,63.9582,22.913
7.7007,65.464,23.113
7.767,62.5586,23.313
7.8338,55.0988,23.513
7.9007,52.461,23.713
7.9673,45.0879,23.913
8.0338,43.1901,24.113
8.1006,43.3904,24.313
8.1674,41.1796,24.513
8.2341,41.8805,24.713
8.3006,43.0191,24.913
8.3671,44.2927,25.113
8.4341,46.0439,25.313
8.5007,46.9862,25.513
8.5672,48.4833,25.713
8.634,48.0876,25.913
8.7007,45.8759,26.113
8.7672,47.1153,26.313
8.8341,48.4549,26.513
8.9007,48.4038,26.713
8.9672,48.5826,26.913
9.034,47.2546,27.113
9.1007,47.2774,27.313
9.1675,48.061,27.513
9.2341,38.398,27.713
9.3008,36.6185,27.913
9.3674,35.0088,28.113
9.4339,35.1528,28.313
9.5009,35.9327,28.513
9.5676,36.2193,28.713
9.6342,36.0616,28.913
9.7008,36.2914,29.113
9.7675,35.6014,29.313
9.8343,35.3139,29.513
9.9008,34.7241,29.713
9.9674,35.6294,29.913
10.0344,36.3502,30.113
10.1011,36.7487,30.313
10.1673,37.1987,30.513
10.2342,37.9202,30.713
10.3009,38.4077,30.913
10.3676,39.4683,31.113
10.434,40.0524,31.313
10.5008,40.6274,31.513
10.5675,40.0913,31.713
10.6343,40.933,31.913
10.7008,41.8252,32.113
10.7673,42.5898,32.313
10.8342,43.2763,32.513
10.9009,43.5897,32.713
10.9673,44.3653,32.913
11.0341,44.9353,33.113
11.1006,45.6553,33.313
11.1671,46.1977,33.513
11.2339,47.0283,33.713
11.3005,47.0171,33.913
11.367,46.1704,34.113
11.4339,46.6728,34.313
11.5005,47.0908,34.513
11.5672,45.7556,34.713
11.6338,46.0077,34.913
11.7006,44.6918,35.113
11.7671,42.8746,35.313
11.8337,42.4398,35.513
11.9006,42.9504,35.713
11.9673,43.664,35.913
12.0339,44.2649,36.113
12.1005,44.3789,36.313
12.1672,44.3506,36.513
12.2339,37.0034,36.713
12.3004,34.299,36.913
12.3671,34.105,37.113
12.434,34.0221,37.313
12.5008,33.6154,37.513
12.5671,33.7421,37.713
12.6339,34.2137,37.913
12.7007,34.457,38.113
12.7674,34.5525,38.313
12.8338,34.5976,38.513
12.9006,34.9606,38.713
12.9674,34.9613,38.913
13.0341,35.3731,39.113
13.1007,35.5961,39.313
13.1672,35.701,39.513
13.2006,35.5807,39.613