File: Data/Selected_data/SSP_2022-12-08_B5_NO.csv
Crossheadmm,LoadN,Timesec
0.0,6.45,0.000
0.02,6.64,0.200
0.04,7.43,0.400
0.05,8.33,0.600
0.07,8.94,0.800
0.09,10.07,1.000
0.1,10.69,1.200
0.12,11.38,1.400
0.14,12.04,1.600
0.15,12.76,1.800
0.17,13.52,2.000
0.19,14.58,2.200
0.2,15.4,2.400
0.22,15.98,2.600
0.24,16.7,2.800
0.25,17.52,3.000
0.27,18.43,3.200
0.29,19.45,3.400
0.3,20.34,3.600
0.32,20.98,3.800
0.34,21.98,4.000
0.35,22.88,4.200
0.37,23.78,4.400
0.39,24.99,4.600
0.4,25.8,4.800
0.42,26.65,5.000
0.44,27.71,5.200
0.45,29.02,5.400
0.47,29.83,5.600
0.49,30.63,5.800
0.5,31.73,6.000
0.52,33.11,6.200
0.54,33.85,6.400
0.55,35.09,6.600
0.57,36.01,6.800
0.59,37.15,7.000
0.6,38.31,7.200
0.62,39.49,7.400
0.64,40.66,7.600
0.65,41.76,7.800
0.67,43.06,8.000
0.69,44.13,8.200
0.7,45.55,8.400
0.72,46.52,8.600
0.74,47.85,8.800
0.75,49.05,9.000
0.77,50.27,9.200
0.79,51.69,9.400
0.8,53.01,9.600
0.82,54.05,9.800
0.84,55.68,10.000
0.85,57.03,10.200
0.87,58.36,10.400
0.89,59.66,10.600
0.9,60.9,10.800
0.92,62.42,11.000
0.94,64.04,11.200
0.95,65.36,11.400
0.97,66.81,11.600
0.99,68.39,11.800
1.0,69.9,12.000
1.02,71.14,12.200
1.04,72.65,12.400
1.05,74.21,12.600
1.07,75.91,12.800
1.09,77.62,13.000
1.1,79.06,13.200
1.12,80.94,13.400
1.14,82.33,13.600
1.15,83.81,13.800
1.17,85.79,14.000
1.19,73.3,14.200
1.2,70.69,14.400
1.22,72.97,14.600
1.24,75.32,14.800
1.25,78.02,15.000
1.27,80.13,15.200
1.29,82.25,15.400
1.3,84.51,15.600
1.32,86.63,15.800
1.34,88.7,16.000
1.35,90.99,16.200
1.37,92.99,16.400
1.39,94.92,16.600
1.4,96.84,16.800
1.42,98.95,17.000
1.44,101.15,17.200
1.45,102.96,17.400
1.47,105.14,17.600
1.49,106.99,17.800
1.5,109.15,18.000
1.52,111.25,18.200
1.54,113.03,18.400
1.55,115.3,18.600
1.57,117.5,18.800
1.59,119.56,19.000
1.6,121.73,19.200
1.62,123.88,19.400
1.64,125.94,19.600
1.65,128.04,19.800
1.67,130.19,20.000
1.69,132.65,20.200
1.7,135.06,20.400
1.72,137.35,20.600
1.74,139.45,20.800
1.75,141.77,21.000
1.77,144.0,21.200
1.79,146.46,21.400
1.8,148.78,21.600
1.82,151.17,21.800
1.84,153.26,22.000
1.85,155.43,22.200
1.87,157.76,22.400
1.89,159.9,22.600
1.9,162.36,22.800
1.92,164.74,23.000
1.94,167.02,23.200
1.95,169.5,23.400
1.97,171.92,23.600
1.99,174.38,23.800
2.0,176.77,24.000
2.02,179.45,24.200
2.04,181.51,24.400
2.05,183.95,24.600
2.07,185.39,24.800
2.09,186.6,25.000
2.1,188.16,25.200
2.12,170.38,25.400
2.14,166.94,25.600
2.15,170.54,25.800
2.17,173.37,26.000
2.19,176.45,26.200
2.2,174.26,26.400
2.22,169.61,26.600
2.24,167.14,26.800
2.25,169.21,27.000
2.27,172.3,27.200
2.29,175.04,27.400
2.3,176.81,27.600
2.32,179.53,27.800
2.34,182.3,28.000
2.35,185.17,28.200
2.37,188.04,28.400
2.39,190.16,28.600
2.4,192.79,28.800
2.42,195.01,29.000
2.44,197.86,29.200
2.45,199.98,29.400
2.47,202.65,29.600
2.49,205.21,29.800
2.5,208.19,30.000
2.52,210.11,30.200
2.54,212.21,30.400
2.55,214.92,30.600
2.57,217.67,30.800
2.59,218.22,31.000
2.6,220.31,31.200
2.62,222.15,31.400
2.64,224.33,31.600
2.65,225.72,31.800
2.67,228.56,32.000
2.69,230.82,32.200
2.7,233.66,32.400
2.72,236.53,32.600
2.74,239.13,32.800
2.75,241.95,33.000
2.77,243.95,33.200
2.79,246.7,33.400
2.8,249.31,33.600
2.82,252.03,33.800
2.84,254.31,34.000
2.85,256.72,34.200
2.87,258.81,34.400
2.89,259.37,34.600
2.9,261.23,34.800
2.92,263.1,35.000
2.94,265.56,35.200
2.95,268.09,35.400
2.97,270.81,35.600
2.99,273.34,35.800
3.0,276.19,36.000
3.02,278.63,36.200
3.04,280.99,36.400
3.05,283.87,36.600
3.07,284.14,36.800
3.09,285.02,37.000
3.1,286.5,37.200
3.12,286.9,37.400
3.14,287.37,37.600
3.15,289.78,37.800
3.17,291.43,38.000
3.19,293.67,38.200
3.2,296.0,38.400
3.22,297.12,38.600
3.24,297.69,38.800
3.25,297.86,39.000
3.27,300.55,39.200
3.29,302.97,39.400
3.3,305.35,39.600
3.32,307.63,39.800
3.34,307.98,40.000
3.35,302.87,40.200
3.37,303.11,40.400
3.39,304.36,40.600
3.4,305.9,40.800
3.42,308.28,41.000
3.44,309.78,41.200
3.45,311.05,41.400
3.47,312.11,41.600
3.49,313.05,41.800
3.5,313.9,42.000
3.52,312.74,42.200
3.54,313.61,42.400
3.55,314.93,42.600
3.57,316.62,42.800
3.59,317.58,43.000
3.6,318.61,43.200
3.62,318.6,43.400
3.64,317.08,43.600
3.65,317.04,43.800
3.67,318.14,44.000
3.69,319.91,44.200
3.7,322.18,44.400
3.72,323.11,44.600
3.74,323.3,44.800
3.75,324.96,45.000
3.77,326.6,45.200
3.79,327.59,45.400
3.8,329.16,45.600
3.82,331.05,45.800
3.84,332.82,46.000
3.85,334.73,46.200
3.87,336.59,46.400
3.89,337.44,46.600
3.9,338.84,46.800
3.92,340.07,47.000
3.94,341.01,47.200
3.95,341.5,47.400
3.97,341.85,47.600
3.99,334.19,47.800
4.0,332.83,48.000
4.02,330.38,48.200
4.04,327.71,48.400
4.05,325.43,48.600
4.07,317.57,48.800
4.09,315.81,49.000
4.1,316.54,49.200
4.12,316.44,49.400
4.14,314.01,49.600
4.15,301.85,49.800
4.17,208.45,50.000
4.19,183.19,50.200
4.2,182.53,50.300