File: Data/Selected_data/SSP_2024-10-27_C2_OPER_TestRun1.csv
Crossheadmm,LoadN,Timesec
0.0598,0.0501761,0.214
0.2269,0.109228,0.714
0.3936,0.140701,1.214
0.5605,0.215138,1.714
0.7271,0.229544,2.214
0.8937,0.35655,2.714
1.06,0.337074,3.214
1.227,0.482491,3.714
1.3939,0.546643,4.214
1.56,0.614496,4.714
1.727,0.859679,5.214
1.8935,0.911115,5.714
2.0601,1.1631,6.214
2.2269,1.45409,6.714
2.3935,1.46259,7.214
2.5602,1.7792,7.714
2.7268,1.9091,8.214
2.8934,2.41901,8.714
3.0603,2.54141,9.214
3.2269,2.8813,9.714
3.3934,3.44754,10.214
3.5604,3.68997,10.714
3.7269,4.22256,11.214
3.8934,4.73701,11.714
4.0603,5.25431,12.214
4.2269,6.00652,12.714
4.3937,6.57464,13.214
4.5602,7.15493,13.714
4.7273,7.74756,14.214
4.8936,8.53646,14.714
5.0601,9.19712,15.214
5.227,9.83742,15.714
5.3937,10.4571,16.214
5.5601,11.2672,16.714
5.7268,12.2498,17.214
5.8933,12.8895,17.714
6.0601,13.7684,18.214
6.2267,14.4965,18.714
6.3932,15.5102,19.214
6.5601,16.1306,19.714
6.7267,17.0713,20.214
6.8932,17.7919,20.714
7.0601,18.3564,21.214
7.2267,18.8204,21.714
7.3935,19.9698,22.214
7.5602,20.698,22.714
7.7268,21.5569,23.214
7.8936,22.3966,23.714
8.0603,22.8004,24.214
8.2267,23.2367,24.714
8.3937,24.0624,25.214
8.5605,25.1906,25.714
8.727,26.0039,26.214
8.8938,26.9904,26.714
9.0603,27.9995,27.214
9.2272,28.9067,27.714
9.3939,29.7013,28.214
9.5606,30.5008,28.714
9.7271,30.9842,29.214
9.8934,30.0189,29.714
10.0602,29.562,30.214
10.227,30.5851,30.714
10.3932,31.7455,31.214
10.56,32.8486,31.714
10.7267,33.8005,32.214
10.8933,34.4154,32.714
11.0597,35.329,33.214
11.2266,36.0994,33.714
11.3936,37.0354,34.214
11.5601,37.6747,34.714
11.7267,38.6478,35.214
11.8938,39.3503,35.714
12.06,39.8129,36.214
12.2269,40.4218,36.714
12.3937,41.0626,37.214
12.5602,41.7817,37.714
12.727,42.1319,38.214
12.8937,42.7972,38.714
13.0603,43.3591,39.214
13.2271,43.9905,39.714
13.3938,44.6734,40.214
13.5602,44.9724,40.714
13.7271,45.1002,41.214
13.8934,44.033,41.714
14.0601,42.1255,42.214
14.227,43.0408,42.714
14.3936,44.7946,43.214
14.5603,45.2794,43.714
14.7267,46.7221,44.214
14.8934,47.3657,44.714
15.0601,48.214,45.214
15.2267,48.8885,45.714
15.3932,49.7372,46.214
15.5603,50.4151,46.714
15.7268,51.1134,47.214
15.8935,51.8362,47.714
16.0602,52.3777,48.214
16.227,53.2131,48.714
16.3938,53.8275,49.214
16.5601,54.3447,49.714
16.7272,55.1896,50.214
16.8937,55.7315,50.714
17.0602,56.4917,51.214
17.2271,56.8636,51.714
17.3936,57.2102,52.214
17.5602,57.8625,52.714
17.7269,58.3019,53.214
17.8934,58.7671,53.714
18.0602,59.5621,54.214
18.2265,60.4139,54.714
18.3934,61.2436,55.214
18.5602,61.9649,55.714
18.7265,62.5511,56.214
18.8933,63.0401,56.714
19.0602,63.09,57.214
19.2263,62.2871,57.714
19.3935,59.555,58.214
19.5601,61.2108,58.714
19.7268,62.9712,59.214
19.8935,64.5136,59.714
20.06,65.4451,60.214
20.2268,66.4814,60.714
20.3937,67.5048,61.214
20.5604,68.5552,61.714
20.7269,69.4,62.214
20.8937,70.4751,62.714
21.0604,71.3391,63.214
21.2271,71.9685,63.714
21.3937,73.0363,64.214
21.5607,73.6764,64.714
21.7272,74.2824,65.214
21.8936,75.0037,65.714
22.0605,76.0959,66.214
22.227,76.8169,66.714
22.3937,77.017,67.214
22.5601,77.4046,67.714
22.7268,77.5334,68.214
22.8935,77.3483,68.714
23.06,78.0352,69.214
23.2265,78.873,69.714
23.3934,79.797,70.214
23.5599,80.7465,70.714
23.7266,81.7006,71.214
23.8936,82.6311,71.714
24.0599,83.4772,72.214
24.2267,84.3201,72.714
24.3935,85.0985,73.214
24.5601,85.7313,73.714
24.7268,86.0078,74.214
24.8934,86.4175,74.714
25.0601,87.0043,75.214
25.227,87.6564,75.714
25.3933,88.5495,76.214
25.5604,89.3632,76.714
25.7271,90.5466,77.214
25.8935,91.33,77.714
26.0602,91.9725,78.214
26.2268,92.6651,78.714
26.3934,93.5868,79.214
26.5603,94.1336,79.714
26.7267,94.9042,80.214
26.8936,95.4055,80.714
27.0602,95.5928,81.214
27.2267,95.4618,81.714
27.3933,94.8407,82.214
27.56,95.2043,82.714
27.7269,96.3758,83.214
27.8934,97.6721,83.714
28.06,98.919,84.214
28.2268,100.016,84.714
28.3936,101.122,85.214
28.5603,102.221,85.714
28.7271,102.978,86.214
28.8934,104.013,86.714
29.0602,104.948,87.214
29.227,105.66,87.714
29.3937,106.519,88.214
29.5602,107.189,88.714
29.7268,107.792,89.214
29.8937,108.318,89.714
30.0603,108.697,90.214
30.2265,109.014,90.714
30.3936,109.174,91.214
30.5604,108.945,91.714
30.7267,108.596,92.214
30.8935,108.993,92.714
31.0602,105.202,93.214
31.2265,99.3017,93.714
31.3934,81.335,94.214
31.5599,82.9585,94.714
31.7267,86.6427,95.214
31.8935,90.4049,95.714
32.0599,92.7285,96.214
32.2268,96.1928,96.714
32.3934,98.0961,97.214
32.5602,99.51,97.714
32.7267,101.871,98.214
32.8933,103.712,98.714
33.06,105.135,99.214
33.2267,107.338,99.714
33.3936,109.001,100.214
33.5605,110.645,100.714
33.7269,112.138,101.214
33.8936,113.493,101.714
34.0605,114.798,102.214
34.2269,115.854,102.714
34.3937,116.891,103.214
34.5601,117.904,103.714
34.727,118.848,104.214
34.8938,119.796,104.714
35.0601,120.781,105.214
35.2269,121.491,105.714
35.3935,122.251,106.214
35.5601,122.974,106.714
35.7268,123.821,107.214
35.8936,124.49,107.714
36.0601,125.089,108.214
36.2267,126.153,108.714
36.3932,126.5,109.214
36.5601,127.624,109.714
36.7266,128.204,110.214
36.8931,129.138,110.714
37.06,129.851,111.214
37.2267,130.594,111.714
37.393,131.652,112.214
37.5601,132.447,112.714
37.7268,133.604,113.214
37.8934,134.094,113.714
38.0602,134.832,114.214
38.227,135.719,114.714
38.3934,136.497,115.214
38.5602,137.295,115.714
38.7269,137.867,116.214
38.8938,138.799,116.714
39.0602,139.27,117.214
39.2269,139.92,117.714
39.3936,140.895,118.214
39.5601,141.684,118.714
39.727,142.354,119.214
39.8932,142.832,119.714
40.0601,143.419,120.214
40.2268,144.688,120.714
40.3932,145.048,121.214
40.5601,145.992,121.714
40.727,146.214,122.214
40.8933,147.518,122.714
41.0601,148.146,123.214
41.2267,148.904,123.714
41.3935,149.391,124.214
41.5601,150.077,124.714
41.7264,150.939,125.214
41.8937,151.094,125.714
42.0602,151.898,126.214
42.2268,152.212,126.714
42.3936,153.612,127.214
42.5603,154.581,127.714
42.7269,155.441,128.214
42.8936,156.228,128.714
43.0604,157.495,129.214
43.2269,158.26,129.714
43.3935,158.792,130.214
43.5601,159.789,130.714
43.7269,160.834,131.214
43.8931,161.676,131.714
44.0599,162.678,132.214
44.2266,163.072,132.714
44.3932,162.497,133.214
44.5597,163.235,133.714
44.7267,163.889,134.214
44.8933,164.336,134.714
45.0599,163.839,135.214
45.2264,164.679,135.714
45.3934,164.414,136.214
45.5599,166.037,136.714
45.7266,166.601,137.214
45.8935,167.278,137.714
46.0602,167.362,138.214
46.2269,167.867,138.714
46.3937,166.982,139.214
46.5602,21.8263,139.714
46.5665,1.8184,139.734