File: Data/Selected_data/SSP_2025-03-20_D14_NO.csv
Crossheadmm,LoadN,Timesec
0.0359,1.98487,0.119
0.1028,2.44395,0.319
0.1697,2.88127,0.519
0.236,3.4113,0.719
0.3028,3.91277,0.919
0.3694,4.42343,1.119
0.4363,4.97494,1.319
0.5026,5.46776,1.519
0.5693,6.03433,1.719
0.636,6.59273,1.919
0.7027,7.16189,2.119
0.7693,8.07076,2.319
0.836,8.79929,2.519
0.9025,9.50938,2.719
0.9692,10.6726,2.919
1.036,11.6288,3.119
1.1024,12.9339,3.319
1.1688,14.1317,3.519
1.2359,15.4412,3.719
1.3025,16.9656,3.919
1.3692,18.3819,4.119
1.4357,20.28,4.319
1.5025,22.0074,4.519
1.5691,24.1637,4.719
1.6357,26.1748,4.919
1.7024,28.39,5.119
1.7692,30.4772,5.319
1.836,33.0693,5.519
1.9026,35.3859,5.719
1.9693,37.9657,5.919
2.0358,40.4428,6.119
2.1026,42.9714,6.319
2.1694,45.7138,6.519
2.2358,48.4901,6.719
2.3028,51.3397,6.919
2.3696,54.3496,7.119
2.436,57.5989,7.319
2.5028,60.7389,7.519
2.5695,63.9798,7.719
2.636,67.3929,7.919
2.7027,70.7682,8.119
2.7694,73.9978,8.319
2.8362,77.5042,8.519
2.9026,80.9785,8.719
2.9694,84.6311,8.919
3.0361,88.2579,9.119
3.1027,91.8787,9.319
3.1694,95.636,9.519
3.2361,99.2696,9.719
3.3026,103.154,9.919
3.3694,106.969,10.119
3.4362,110.636,10.319
3.5027,113.998,10.519
3.569,117.416,10.719
3.6361,119.938,10.919
3.7028,122.791,11.119
3.7695,124.247,11.319
3.8358,125.327,11.519
3.9027,129.42,11.719
3.9693,134.094,11.919
4.0359,139.496,12.119
4.1024,144.32,12.319
4.1692,149.108,12.519
4.2361,153.463,12.719
4.3027,156.353,12.919
4.3692,160.383,13.119
4.4358,164.881,13.319
4.5025,169.422,13.519
4.5694,171.686,13.719
4.6356,175.509,13.919
4.7027,180.186,14.119
4.7693,184.46,14.319
4.8359,185.882,14.519
4.9025,189.737,14.719
4.9693,193.174,14.919
5.0357,196.481,15.119
5.1026,198.684,15.319
5.1692,197.611,15.519
5.236,199.625,15.719
5.3024,200.1,15.919
5.3692,194.108,16.119
5.4358,190.703,16.319
5.5025,193.521,16.519
5.5691,186.554,16.719
5.6357,189.806,16.919
5.7022,192.279,17.119
5.7689,192.395,17.319
5.8356,193.769,17.519
5.9021,196.582,17.719
5.9687,198.499,17.919
6.0358,198.016,18.119
6.1024,200.62,18.319
6.1691,203.446,18.519
6.2355,205.629,18.719
6.3024,207.497,18.919
6.3691,208.243,19.119
6.4358,207.262,19.319
6.5023,198.693,19.519
6.5692,197.38,19.719
6.6359,198.604,19.919
6.7026,199.399,20.119
6.7691,199.15,20.319
6.8358,198.342,20.519
6.9025,196.678,20.719
6.9695,194.459,20.919
7.0357,191.496,21.119
7.1027,188.977,21.319
7.1693,186.872,21.519
7.2361,184.64,21.719
7.3027,183.628,21.919
7.3693,183.286,22.119
7.4359,183.461,22.319
7.5028,183.774,22.519
7.5693,184.447,22.719
7.6362,184.26,22.919
7.7026,184.215,23.119
7.7694,183.525,23.319
7.836,183.151,23.519
7.9027,183.668,23.719
7.9695,184.611,23.919
8.0361,185.567,24.119
8.1026,186.681,24.319
8.1694,188.323,24.519
8.2361,189.676,24.719
8.3026,190.654,24.919
8.3691,191.335,25.119
8.4361,192.232,25.319
8.5028,193.279,25.519
8.5695,194.356,25.719
8.6358,195.467,25.919
8.7027,197.454,26.119
8.7694,199.638,26.319
8.836,202.026,26.519
8.9026,204.134,26.719
8.9693,205.788,26.919
9.0361,207.551,27.119
9.1028,208.339,27.319
9.1693,208.29,27.519
9.2359,208.107,27.719
9.3025,207.982,27.919
9.3695,208.799,28.119
9.4356,209.197,28.319
9.5026,209.217,28.519
9.5693,207.189,28.719
9.636,205.165,28.919
9.7025,202.664,29.119
9.7692,199.36,29.319
9.8357,197.084,29.519
9.9024,196.805,29.719
9.969,196.591,29.919
10.0358,196.991,30.119
10.1023,197.648,30.319
10.1691,198.289,30.519
10.2356,198.958,30.719
10.3023,200.597,30.919
10.3692,202.636,31.119
10.4357,204.418,31.319
10.5022,206.508,31.519
10.569,208.421,31.719
10.6358,210.078,31.919
10.7024,211.398,32.119
10.7688,212.529,32.319
10.8357,213.875,32.519
10.9025,215.36,32.719
10.9692,217.346,32.919
11.0356,219.461,33.119
11.1024,221.652,33.319
11.1691,223.972,33.519
11.2359,225.718,33.719
11.3024,227.175,33.919
11.3692,228.74,34.119
11.436,231.226,34.319
11.5027,233.63,34.519
11.5692,236.262,34.719
11.6358,239.689,34.919
11.7025,242.605,35.119
11.7696,245.062,35.319
11.8358,246.475,35.519
11.9026,247.77,35.719
11.9694,247.967,35.919
12.0362,247.848,36.119
12.1027,248.509,36.319
12.1693,249.427,36.519
12.236,250.236,36.719
12.3028,250.006,36.919
12.3694,250.42,37.119
12.436,251.603,37.319
12.5026,251.101,37.519
12.5695,252.96,37.719
12.636,238.996,37.919
12.7026,238.297,38.119
12.7696,241.824,38.319
12.8361,243.514,38.519
12.9025,246.233,38.719
12.9693,247.523,38.919
13.0362,248.181,39.119
13.1027,244.094,39.319
13.1693,178.039,39.519
13.2361,102.911,39.719
13.303,28.6657,39.919
13.3696,26.8746,40.119
13.436,26.9786,40.319
13.5027,27.5628,40.519
13.5361,27.8407,40.619