File: Data/Selected_data/SSP_2022-12-17_B7_OPER.csv
Crossheadmm,LoadN,Timesec
0.0,0.0,0.000
0.1,1.0,0.300
0.2,1.0,0.600
0.3,1.0,0.900
0.39,1.0,1.200
0.5,1.0,1.500
0.6,1.0,1.800
0.7,1.0,2.100
0.8,1.0,2.400
0.9,1.0,2.700
1.0,1.0,3.000
1.1,1.0,3.300
1.2,1.0,3.600
1.3,2.0,3.900
1.4,2.0,4.200
1.5,2.0,4.500
1.6,2.0,4.800
1.7,2.0,5.100
1.79,2.0,5.400
1.89,2.0,5.700
2.0,2.0,6.000
2.09,2.0,6.300
2.19,2.0,6.600
2.29,2.0,6.900
2.39,3.0,7.200
2.5,3.0,7.500
2.59,4.0,7.800
2.69,4.0,8.100
2.79,4.0,8.400
2.89,4.0,8.700
2.99,4.0,9.000
3.09,4.0,9.300
3.19,4.0,9.600
3.29,5.0,9.900
3.39,5.0,10.200
3.49,5.0,10.500
3.59,5.0,10.800
3.69,6.0,11.100
3.79,6.0,11.400
3.89,7.0,11.700
3.99,7.0,12.000
4.09,7.0,12.300
4.19,7.0,12.600
4.29,7.0,12.900
4.39,7.0,13.200
4.49,8.0,13.500
4.59,8.0,13.800
4.69,9.0,14.100
4.79,9.0,14.400
4.89,9.0,14.700
4.99,9.0,15.000
5.09,9.0,15.300
5.19,9.0,15.600
5.29,9.0,15.900
5.39,9.0,16.200
5.49,9.0,16.500
5.59,9.0,16.800
5.69,9.0,17.100
5.79,10.0,17.400
5.89,10.0,17.700
5.99,10.0,18.000
6.09,10.0,18.300
6.19,11.0,18.600
6.29,11.0,18.900
6.39,11.0,19.200
6.49,12.0,19.500
6.59,12.0,19.800
6.69,12.0,20.100
6.79,12.0,20.400
6.89,12.0,20.700
6.99,12.0,21.000
7.09,12.0,21.300
7.19,12.0,21.600
7.29,12.0,21.900
7.39,12.0,22.200
7.49,12.0,22.500
7.59,11.0,22.800
7.69,10.0,23.100
7.79,10.0,23.400
7.89,10.0,23.700
7.99,11.0,24.000
8.09,12.0,24.300
8.19,12.0,24.600
8.29,13.0,24.900
8.39,13.0,25.200
8.49,14.0,25.500
8.59,14.0,25.800
8.69,14.0,26.100
8.79,14.0,26.400
8.89,14.0,26.700
8.99,15.0,27.000
9.09,15.0,27.300
9.19,16.0,27.600
9.29,16.0,27.900
9.39,17.0,28.200
9.49,18.0,28.500
9.59,19.0,28.800
9.69,20.0,29.100
9.79,21.0,29.400
9.89,22.0,29.700
9.99,23.0,30.000
10.09,23.0,30.300
10.19,24.0,30.600
10.29,25.0,30.900
10.39,26.0,31.200
10.49,27.0,31.500
10.59,29.0,31.800
10.69,30.0,32.100
10.79,31.0,32.400
10.89,32.0,32.700
10.99,33.0,33.000
11.09,34.0,33.300
11.19,35.0,33.600
11.29,36.0,33.900
11.38,38.0,34.200
11.49,40.0,34.500
11.59,41.0,34.800
11.69,43.0,35.100
11.79,44.0,35.400
11.89,45.0,35.700
11.99,44.0,36.000
12.09,43.0,36.300
12.19,43.0,36.600
12.29,43.0,36.900
12.38,44.0,37.200
12.48,45.0,37.500
12.59,43.0,37.800
12.69,41.0,38.100
12.78,40.0,38.400
12.88,42.0,38.700
12.99,45.0,39.000
13.08,47.0,39.300
13.18,49.0,39.600
13.28,51.0,39.900
13.38,52.0,40.200
13.48,54.0,40.500
13.58,56.0,40.800
13.68,58.0,41.100
13.78,62.0,41.400
13.88,64.0,41.700
13.98,68.0,42.000
14.08,71.0,42.300
14.18,73.0,42.600
14.28,76.0,42.900
14.38,79.0,43.200
14.48,83.0,43.500
14.58,86.0,43.800
14.68,89.0,44.100
14.78,91.0,44.400
14.88,94.0,44.700
14.98,97.0,45.000
15.08,99.0,45.300
15.18,101.0,45.600
15.28,102.0,45.900
15.38,103.0,46.200
15.48,104.0,46.500
15.58,104.0,46.800
15.68,102.0,47.100
15.78,101.0,47.400
15.88,99.0,47.700
15.98,100.0,48.000
16.08,101.0,48.300
16.18,103.0,48.600
16.28,105.0,48.900
16.38,105.0,49.200
16.48,105.0,49.500
16.58,105.0,49.800
16.68,107.0,50.100
16.78,109.0,50.400
16.88,112.0,50.700
16.98,105.0,51.000
17.08,98.0,51.300
17.18,89.0,51.600
17.28,91.0,51.900
17.38,93.0,52.200
17.48,95.0,52.500
17.58,97.0,52.800
17.68,98.0,53.100
17.78,101.0,53.400
17.88,103.0,53.700
17.98,105.0,54.000
18.08,107.0,54.300
18.18,109.0,54.600
18.28,112.0,54.900
18.38,115.0,55.200
18.48,116.0,55.500
18.58,117.0,55.800
18.68,119.0,56.100
18.78,119.0,56.400
18.88,120.0,56.700
18.98,120.0,57.000
19.08,45.0,57.300
19.18,44.0,57.600
19.28,44.0,57.900
19.37,44.0,58.200
19.48,43.0,58.500
19.58,42.0,58.800
19.68,41.0,59.100
19.78,41.0,59.400
19.88,41.0,59.700
19.98,41.0,60.000
20.07,41.0,60.300
20.18,41.0,60.600
20.28,40.0,60.900
20.38,38.0,61.200
20.48,38.0,61.500
20.58,38.0,61.800
20.68,38.0,62.100
20.78,38.0,62.400
20.88,37.0,62.700
20.98,36.0,63.000
21.08,35.0,63.300
21.17,34.0,63.600
21.28,34.0,63.900
21.38,34.0,64.200
21.47,34.0,64.500
21.58,33.0,64.800
21.68,32.0,65.100
21.77,32.0,65.400
21.87,31.0,65.700
21.98,31.0,66.000
22.08,30.0,66.300
22.18,29.0,66.600
22.28,27.0,66.900
22.38,27.0,67.200
22.47,26.0,67.500
22.58,26.0,67.800
22.68,26.0,68.100
22.78,25.0,68.400
22.87,25.0,68.700
22.97,24.0,69.000
23.07,24.0,69.300
23.11,24.0,69.400