File: Data/Selected_data/SSP_2025-03-19_D6_OPER.csv
Crossheadmm,LoadN,Timesec
0.0344,0.0338565,0.114
0.1343,0.496611,0.414
0.2346,0.239137,0.714
0.3342,0.738246,1.014
0.4344,0.663653,1.314
0.5342,0.873144,1.614
0.6343,1.02505,1.914
0.7344,1.13299,2.214
0.8339,1.42949,2.514
0.9343,1.81066,2.814
1.0341,2.13053,3.114
1.1338,2.72364,3.414
1.2345,3.47294,3.714
1.3341,4.06725,4.014
1.4342,5.05644,4.314
1.5343,5.91892,4.614
1.6341,6.9998,4.914
1.7344,7.8934,5.214
1.8343,9.2909,5.514
1.9341,10.2251,5.814
2.0344,11.3773,6.114
2.1341,12.83,6.414
2.2345,14.2149,6.714
2.3348,15.6071,7.014
2.4345,17.0164,7.314
2.5344,18.4365,7.614
2.6347,20.128,7.914
2.7342,21.7213,8.214
2.8346,23.0931,8.514
2.9345,24.3996,8.814
3.0345,25.7011,9.114
3.1347,27.3983,9.414
3.2343,28.453,9.714
3.3346,29.8503,10.014
3.4344,31.1416,10.314
3.5342,32.3717,10.614
3.6348,33.6241,10.914
3.7345,34.5414,11.214
3.8344,35.449,11.514
3.9346,35.3217,11.814
4.0344,33.7974,12.114
4.1346,31.9807,12.414
4.2344,33.5125,12.714
4.3342,25.1315,13.014
4.4345,26.272,13.314
4.5341,25.31,13.614
4.6344,26.3149,13.914
4.7346,26.7147,14.214
4.8343,27.6657,14.514
4.9343,27.0589,14.814
5.0344,18.6373,15.114
5.1341,17.7115,15.414
5.2344,18.338,15.714
5.3342,19.4574,16.014
5.4342,20.3743,16.314
5.5343,21.7315,16.614
5.634,22.2228,16.914
5.7343,22.5842,17.214
5.8341,23.7041,17.514
5.9339,25.2107,17.814
6.0344,26.5559,18.114
6.1342,27.6517,18.414
6.2341,28.2594,18.714
6.3344,29.8256,19.014
6.4342,31.5538,19.314
6.5345,33.1544,19.614
6.6344,35.2088,19.914
6.7342,37.2219,20.214
6.8346,36.9885,20.514
6.9343,39.27,20.814
7.0346,41.7496,21.114
7.1349,44.534,21.414
7.2346,47.341,21.714
7.3345,49.9428,22.014
7.4347,52.7402,22.314
7.5343,55.7414,22.614
7.6347,57.6362,22.914
7.7345,61.7265,23.214
7.8344,66.1461,23.514
7.9347,70.6421,23.814
8.0343,74.1613,24.114
8.1345,78.7533,24.414
8.2343,83.5735,24.714
8.3341,88.1563,25.014
8.4346,93.0925,25.314
8.5343,98.0313,25.614
8.6341,102.824,25.914
8.7345,107.158,26.214
8.8342,110.605,26.514
8.9344,112.385,26.814
9.0343,117.055,27.114
9.134,121.437,27.414
9.2345,125.32,27.714
9.3341,130.656,28.014
9.4342,136.192,28.314
9.5345,139.943,28.614
9.6342,139.547,28.914
9.7343,141.226,29.214
9.8344,145.8,29.514
9.934,151.418,29.814
10.0343,151.839,30.114
10.1341,126.279,30.414
10.234,114.005,30.714
10.3343,117.533,31.014
10.4339,121.919,31.314
10.5342,124.956,31.614
10.6342,111.5,31.914
10.7339,112.493,32.214
10.8344,116.003,32.514
10.9342,120.164,32.814
11.0341,123.815,33.114
11.1344,125.797,33.414
11.2342,128.674,33.714
11.3344,130.899,34.014
11.4344,121.425,34.314
11.5342,119.786,34.614
11.6347,122.833,34.914
11.7344,125.142,35.214
11.8344,128.239,35.514
11.9348,105.614,35.814
12.0344,102.063,36.114
12.1345,86.5771,36.414
12.2347,81.6507,36.714
12.3344,79.0698,37.014
12.4347,74.258,37.314
12.5344,68.6923,37.614
12.6344,48.618,37.914
12.7346,46.4269,38.214
12.8344,38.8604,38.514
12.9345,37.0654,38.814
13.0344,36.598,39.114
13.1342,35.8306,39.414
13.2346,34.5201,39.714
13.3344,30.3686,40.014
13.4342,29.3995,40.314
13.5346,28.1697,40.614
13.6344,27.4083,40.914
13.7345,26.5159,41.214
13.8345,25.047,41.514
13.9342,23.9585,41.814
14.0347,23.2916,42.114
14.1342,22.72,42.414
14.2342,21.9672,42.714
14.3346,21.0845,43.014
14.434,20.2661,43.314
14.5342,19.7437,43.614
14.6343,19.342,43.914
14.734,19.3005,44.214
14.8344,19.0951,44.514
14.934,18.5963,44.814
15.0341,18.2359,45.114
15.1342,17.3704,45.414
15.2341,16.917,45.714
15.3342,14.8899,46.014
15.4343,12.9781,46.314
15.534,12.1041,46.614
15.6345,11.3795,46.914
15.7343,10.6395,47.214
15.8342,9.3729,47.514
15.9345,8.12889,47.814
16.0344,7.47486,48.114
16.1345,7.37505,48.414
16.2346,7.38956,48.714
16.3343,7.37694,49.014
16.4349,6.03427,49.314
16.5345,5.44899,49.614
16.6345,5.24826,49.914
16.7348,4.50409,50.214
16.8343,4.36471,50.514
16.9345,3.9286,50.814
17.0347,3.18521,51.114
17.1345,2.86635,51.414
17.2349,2.85793,51.714
17.3345,2.65174,52.014
17.4346,2.67636,52.314
17.5346,2.41607,52.614
17.6345,2.4504,52.914
17.7344,2.51229,53.214
17.8345,2.6201,53.514
17.9342,2.37512,53.814
18.0346,2.56278,54.114
18.1344,2.52336,54.414
18.2341,2.49013,54.714
18.3345,2.29833,55.014
18.4342,2.40098,55.314
18.5342,2.23686,55.614
18.6344,2.29965,55.914
18.7341,2.13445,56.214
18.8346,2.31621,56.514
18.9342,2.34598,56.814
19.0342,2.13411,57.114
19.1346,1.66813,57.414
19.2339,1.65072,57.714
19.3341,1.61984,58.014
19.4342,1.6679,58.314
19.5341,1.6535,58.614
19.6345,1.24978,58.914
19.7341,1.51065,59.214
19.8342,1.10807,59.514
19.9343,1.07015,59.814
20.0342,0.929707,60.114
20.1342,1.00577,60.414
20.2009,1.0225,60.614