File: Data/Selected_data/SSP_2025-03-18_D5_OPER.csv
Crossheadmm,LoadN,Timesec
0.0337,2.22988,0.112
0.1335,0.660575,0.412
0.2337,0.875329,0.712
0.3337,2.09571,1.012
0.4336,3.69675,1.312
0.5337,5.05535,1.612
0.6335,6.3632,1.912
0.7335,7.52283,2.212
0.8335,8.15536,2.512
0.9335,8.84016,2.812
1.0334,9.86838,3.112
1.1336,10.8609,3.412
1.2335,12.0554,3.712
1.3334,13.4291,4.012
1.4335,14.6917,4.312
1.5335,15.9631,4.612
1.634,17.2607,4.912
1.7335,18.1062,5.212
1.8336,19.3079,5.512
1.9338,20.8755,5.812
2.0338,22.666,6.112
2.1336,24.8674,6.412
2.2338,27.4644,6.712
2.3338,29.4804,7.012
2.4337,32.0461,7.312
2.5336,34.6329,7.612
2.6336,36.8694,7.912
2.7338,39.2297,8.212
2.8337,41.5395,8.512
2.9339,42.6724,8.812
3.0338,43.3276,9.112
3.1337,43.9836,9.412
3.2336,45.7611,9.712
3.3338,47.5361,10.012
3.4338,49.2971,10.312
3.5338,51.8122,10.612
3.6337,54.2828,10.912
3.7336,56.9684,11.212
3.8337,59.5603,11.512
3.9337,61.979,11.812
4.034,64.3183,12.112
4.1335,64.8309,12.412
4.2337,68.7808,12.712
4.3338,72.5294,13.012
4.4337,76.2983,13.312
4.5335,79.7735,13.612
4.6338,81.9055,13.912
4.7337,84.4359,14.212
4.8336,85.1474,14.512
4.9334,67.6506,14.812
5.0335,70.3157,15.112
5.1334,69.7296,15.412
5.2334,71.396,15.712
5.3335,72.7388,16.012
5.4333,71.8974,16.312
5.5334,71.6432,16.612
5.6334,73.5373,16.912
5.7334,75.5864,17.212
5.8335,77.0523,17.512
5.9336,79.2736,17.812
6.0335,81.3118,18.112
6.1334,82.8796,18.412
6.2334,71.2251,18.712
6.3337,71.4214,19.012
6.4339,70.6056,19.312
6.5334,70.5665,19.612
6.6336,69.7199,19.912
6.7337,71.1187,20.212
6.8337,70.4528,20.512
6.9335,70.0261,20.812
7.0337,69.1904,21.112
7.1337,64.2359,21.412
7.2336,64.8643,21.712
7.3337,64.8643,22.012
7.4338,62.9162,22.312
7.5337,63.4013,22.612
7.6338,48.5583,22.912
7.734,48.0363,23.212
7.8338,47.8237,23.512
7.9338,47.4204,23.812
8.0337,47.8184,24.112
8.1338,47.6636,24.412
8.2338,45.2665,24.712
8.3338,45.4092,25.012
8.4338,45.3728,25.312
8.5337,43.5177,25.612
8.6336,41.8623,25.912
8.7339,41.8909,26.212
8.834,41.4044,26.512
8.9335,41.3776,26.812
9.0337,41.8241,27.112
9.1338,39.8361,27.412
9.2336,40.0227,27.712
9.3335,40.1375,28.012
9.4335,39.2591,28.312
9.5336,39.1576,28.612
9.6334,38.4871,28.912
9.7334,37.5001,29.212
9.8335,37.0973,29.512
9.9333,36.4244,29.812
10.0335,36.3417,30.112
10.1337,36.3187,30.412
10.2335,36.4018,30.712
10.3336,36.6437,31.012
10.4335,36.4406,31.312
10.5336,36.2832,31.612
10.6337,36.1066,31.912
10.7337,35.9635,32.212
10.8337,34.5635,32.512
10.9336,34.0233,32.812
11.0335,33.1132,33.112
11.1338,32.2887,33.412
11.234,31.8515,33.712
11.3336,31.4558,34.012
11.4338,30.6282,34.312
11.5338,30.0755,34.612
11.6339,29.5913,34.912
11.7338,29.0377,35.212
11.8339,28.7176,35.512
11.9339,28.0173,35.812
12.0338,27.3415,36.112
12.1338,27.0559,36.412
12.2339,26.9027,36.712
12.3336,26.5669,37.012
12.4338,26.2376,37.312
12.534,25.7237,37.612
12.6338,25.5453,37.912
12.7338,25.3816,38.212
12.8338,24.989,38.512
12.9339,23.9395,38.812
13.0339,23.5124,39.112
13.1337,23.1842,39.412
13.2337,23.182,39.712
13.3338,23.3642,40.012
13.4335,23.0343,40.312
13.5337,21.8665,40.612
13.6338,21.8894,40.912
13.7335,21.9175,41.212
13.8336,21.9457,41.512
13.9335,21.9642,41.812
14.0336,21.7751,42.112
14.1336,20.953,42.412
14.2335,20.3751,42.712
14.3336,19.7122,43.012
14.4334,19.3439,43.312
14.5335,19.2198,43.612
14.6336,18.9933,43.912
14.7333,18.2092,44.212
14.8336,17.8803,44.512
14.9337,17.7347,44.812
15.0336,17.8009,45.112
15.1336,17.6357,45.412
15.2336,17.5684,45.712
15.3337,17.3928,46.012
15.4338,16.7897,46.312
15.5336,16.8692,46.612
15.6337,16.0527,46.912
15.7339,15.9429,47.212
15.8336,15.9239,47.512
15.9339,15.9146,47.812
16.0341,16.1077,48.112
16.1337,15.7156,48.412
16.234,15.6897,48.712
16.3338,15.6874,49.012
16.434,15.4457,49.312
16.534,15.5634,49.612
16.6339,15.4725,49.912
16.734,15.365,50.212
16.8338,15.3496,50.512
16.9338,15.3687,50.812
17.0339,14.9165,51.112
17.1335,14.6549,51.412
17.2337,14.5522,51.712
17.3339,14.2631,52.012
17.4336,14.243,52.312
17.5337,14.0505,52.612
17.6336,14.0973,52.912
17.7336,14.2543,53.212
17.8337,14.3808,53.512
17.9334,14.4828,53.812
18.0335,14.4424,54.112
18.1338,14.6488,54.412
18.2334,14.7063,54.712
18.3337,14.6128,55.012
18.4338,14.7241,55.312
18.5334,14.6181,55.612
18.6336,14.3477,55.912
18.7335,14.0051,56.212
18.8336,14.0193,56.512
18.9336,13.8056,56.812
19.0335,13.481,57.112
19.1337,13.4389,57.412
19.2334,13.4216,57.712
19.3335,13.0627,58.012
19.4337,13.1234,58.312
19.5333,12.9256,58.612
19.6337,12.9654,58.912
19.7339,12.573,59.212
19.8337,12.3764,59.512
19.9339,12.2017,59.812
20.0338,12.4356,60.112
20.1337,12.1151,60.412
20.2339,12.0305,60.712
20.3337,11.8293,61.012
20.4338,11.6813,61.312
20.5342,11.7669,61.612
20.6337,11.8657,61.912
20.734,12.0169,62.212
20.8341,11.7362,62.512
20.9338,11.7944,62.812
21.0339,11.6011,63.112
21.1339,11.5842,63.412
21.234,11.5836,63.712
21.3341,11.5198,64.012
21.4337,11.3435,64.312
21.534,11.1115,64.612
21.6337,10.9593,64.912
21.7337,10.9603,65.212
21.8338,10.7512,65.512
21.9333,10.4471,65.812
22.0337,10.3484,66.112
22.1338,10.1254,66.412
22.2335,10.2815,66.712
22.3336,10.1268,67.012
22.4336,10.2513,67.312
22.5336,10.0516,67.612
22.6337,9.94111,67.912
22.7334,9.36149,68.212
22.8335,9.13365,68.512
22.9339,8.81497,68.812
23.0333,8.2939,69.112
23.1337,8.0421,69.412
23.2338,8.14217,69.712
23.3334,7.42294,70.012
23.4336,6.9781,70.312
23.5335,6.97181,70.612
23.6336,6.69761,70.912
23.7338,7.08218,71.212
23.8334,6.57595,71.512
23.9338,6.51156,71.812
24.0335,4.35514,72.112
24.1337,0.02808,72.412
24.167,0.0462592,72.512