File: Data/Selected_data/SSP_2024-10-26_C1_NO.csv
Crossheadmm,LoadN,Timesec
0.0335,0.17559,0.112
0.0668,2.99704,0.212
0.1004,5.30959,0.312
0.1338,8.00721,0.412
0.167,10.795,0.512
0.2002,13.7836,0.612
0.2337,16.9813,0.712
0.267,19.8549,0.812
0.3002,22.6214,0.912
0.3336,26.2835,1.012
0.3669,28.7922,1.112
0.4002,32.0186,1.212
0.4335,35.2992,1.312
0.4669,38.7205,1.412
0.5002,41.9083,1.512
0.5335,45.4176,1.612
0.5668,48.685,1.712
0.6003,52.4472,1.812
0.6337,55.7557,1.912
0.6669,59.5293,2.012
0.7001,62.8638,2.112
0.7334,66.845,2.212
0.7668,70.7157,2.312
0.8,74.4152,2.412
0.8333,78.3547,2.512
0.8666,82.1451,2.612
0.9002,86.0659,2.712
0.9336,90.141,2.812
0.9669,94.4202,2.912
1.0001,98.2872,3.012
1.0334,102.46,3.112
1.0666,106.714,3.212
1.1001,110.935,3.312
1.1335,115.026,3.412
1.1669,119.412,3.512
1.2001,123.628,3.612
1.2335,127.936,3.712
1.2667,132.217,3.812
1.3001,136.578,3.912
1.3331,140.967,4.012
1.3663,145.578,4.112
1.3999,149.824,4.212
1.4336,154.639,4.312
1.4667,158.658,4.412
1.5,163.303,4.512
1.5334,167.629,4.612
1.5667,172.306,4.712
1.5999,176.7,4.812
1.6331,181.085,4.912
1.6665,185.597,5.012
1.7,190.211,5.112
1.7334,194.934,5.212
1.767,199.521,5.312
1.8003,203.947,5.412
1.8331,208.152,5.512
1.8659,212.586,5.612
1.8994,217.063,5.712
1.9331,221.467,5.812
1.9665,226.186,5.912
1.9998,230.341,6.012
2.0331,234.898,6.112
2.0664,239.005,6.212
2.0997,243.538,6.312
2.133,247.6,6.412
2.1663,251.911,6.512
2.1996,256.219,6.612
2.2331,260.333,6.712
2.2664,264.66,6.812
2.2999,269.09,6.912
2.3333,273.461,7.012
2.3667,277.829,7.112
2.3998,282.075,7.212
2.433,286.539,7.312
2.4663,290.899,7.412
2.4998,295.497,7.512
2.5331,300.078,7.612
2.5664,304.734,7.712
2.5997,309.114,7.812
2.6331,313.598,7.912
2.6664,318.078,8.012
2.6995,322.44,8.112
2.7329,326.988,8.212
2.7664,331.542,8.312
2.7995,336.015,8.412
2.833,340.832,8.512
2.8665,345.319,8.612
2.8998,349.905,8.712
2.933,354.514,8.812
2.9664,359.098,8.912
2.9998,363.674,9.012
3.0333,368.313,9.112
3.0665,372.6,9.212
3.0998,377.228,9.312
3.1331,381.891,9.412
3.1664,386.422,9.512
3.1997,390.942,9.612
3.2329,395.576,9.712
3.2662,399.758,9.812
3.2999,404.337,9.912
3.3333,406.35,10.012
3.3665,410.743,10.112
3.3998,408.26,10.212
3.4331,412.844,10.312
3.4664,407.837,10.412
3.4998,412.033,10.512
3.5331,417.027,10.612
3.5666,421.823,10.712
3.5998,426.68,10.812
3.6332,431.296,10.912
3.6665,435.604,11.012
3.6997,440.153,11.112
3.7329,443.866,11.212
3.7661,448.312,11.312
3.7997,450.869,11.412
3.8333,453.391,11.512
3.8666,449.069,11.612
3.8998,452.068,11.712
3.9333,454.402,11.812
3.9665,456.138,11.912
3.9999,458.37,12.012
4.0332,377.535,12.112
4.0666,267.883,12.212
4.1003,227.752,12.312
4.1338,223.305,12.412
4.1674,214.677,12.512
4.2007,214.191,12.612
4.2332,210.38,12.712
4.2665,193.387,12.812
4.3,191.451,12.912
4.3335,191.507,13.012
4.3669,188.763,13.112
4.4003,150.863,13.212
4.4337,144.846,13.312
4.467,143.82,13.412
4.5003,143.63,13.512
4.5336,142.729,13.612
4.5668,143.818,13.712
4.6001,145.115,13.812
4.6337,143.393,13.912
4.6671,138.648,14.012
4.7005,133.024,14.112
4.7338,131.414,14.212
4.7672,127.86,14.312
4.8003,125.431,14.412
4.8336,113.744,14.512
4.8668,99.5393,14.612
4.9004,97.7296,14.712
4.9336,98.2377,14.812
4.9668,98.7808,14.912
5.0002,99.2129,15.012
5.0337,99.402,15.112
5.067,99.8446,15.212
5.1001,100.947,15.312
5.1334,101.944,15.412
5.1669,103.385,15.512
5.2,104.685,15.612
5.2334,106.126,15.712
5.2669,107.495,15.812
5.3002,108.116,15.912
5.3335,106.112,16.012
5.3669,106.832,16.112
5.4002,108.108,16.212
5.4336,109.021,16.312
5.4669,93.7645,16.412
5.5001,86.5611,16.512
5.5335,86.6135,16.612
5.5668,87.8199,16.712
5.6001,88.8585,16.812
5.6333,89.992,16.912
5.6666,87.4022,17.012
5.7003,86.7505,17.112
5.7337,87.691,17.212
5.7669,88.2346,17.312
5.8002,88.3808,17.412
5.8334,89.812,17.512
5.8668,90.619,17.612
5.9001,91.5358,17.712
5.9334,92.4154,17.812
5.9669,92.7458,17.912
6.0002,93.1569,18.012
6.0335,92.5681,18.112
6.0669,90.6133,18.212
6.1,90.5896,18.312
6.1332,87.0844,18.412
6.1664,86.712,18.512
6.1999,86.5452,18.612
6.2336,86.2855,18.712
6.2667,86.5317,18.812
6.3,86.1322,18.912
6.3335,76.9144,19.012
6.3668,62.2721,19.112
6.4001,61.498,19.212
6.4333,61.972,19.312
6.4666,50.0768,19.412
6.4977,45.7541,19.504