File: Data/Selected_data/SSP_2025-03-20_D10_OPER.csv
Crossheadmm,LoadN,Timesec
0.0339,0.484772,0.113
0.1343,0.571745,0.413
0.2344,0.796133,0.713
0.3343,0.891903,1.013
0.434,1.02946,1.313
0.5343,1.14099,1.613
0.6342,1.07249,1.913
0.734,1.36689,2.213
0.8342,1.39579,2.513
0.934,1.60478,2.813
1.0342,1.84481,3.113
1.1339,2.1557,3.413
1.2339,2.39404,3.713
1.3337,2.74368,4.013
1.4339,3.05303,4.313
1.5339,3.22396,4.613
1.6339,3.38915,4.913
1.7338,3.79749,5.213
1.834,4.1726,5.513
1.934,4.25849,5.813
2.0338,4.98123,6.113
2.1339,5.27436,6.413
2.2339,6.16495,6.713
2.3339,6.51525,7.013
2.4338,7.23745,7.313
2.534,8.11139,7.613
2.6342,8.6152,7.913
2.7341,9.63038,8.213
2.8339,10.8109,8.513
2.9341,12.0068,8.813
3.034,13.2592,9.113
3.1339,14.4163,9.413
3.2342,16.0449,9.713
3.334,17.6566,10.013
3.4342,19.2755,10.313
3.5341,20.9864,10.613
3.6342,22.8835,10.913
3.734,24.576,11.213
3.8342,26.9408,11.513
3.9342,28.9437,11.813
4.0342,31.1936,12.113
4.1341,33.4989,12.413
4.2342,35.854,12.713
4.3343,38.7103,13.013
4.4341,41.5012,13.313
4.5342,44.1394,13.613
4.6341,41.5509,13.913
4.7341,44.5497,14.213
4.8341,48.0653,14.513
4.9342,51.461,14.813
5.0342,54.8999,15.113
5.1341,58.7734,15.413
5.234,62.397,15.713
5.3342,65.3877,16.013
5.434,66.248,16.313
5.5339,69.2678,16.613
5.6341,75.0673,16.913
5.7339,80.0238,17.213
5.8339,85.0188,17.513
5.9339,89.3477,17.813
6.0338,94.731,18.113
6.1336,100.105,18.413
6.2337,105.98,18.713
6.3337,112.066,19.013
6.4338,117.937,19.313
6.5337,123.937,19.613
6.6337,130.071,19.913
6.7339,134.91,20.213
6.8336,140.843,20.513
6.9339,145.697,20.813
7.0337,151.714,21.113
7.1339,151.733,21.413
7.2338,139.388,21.713
7.334,144.084,22.013
7.434,148.159,22.313
7.5341,113.566,22.613
7.634,115.41,22.913
7.7341,113.85,23.213
7.8341,114.659,23.513
7.9339,117.163,23.813
8.0342,100.978,24.113
8.1341,103.175,24.413
8.2341,106.467,24.713
8.3341,105.31,25.013
8.4342,107.2,25.313
8.5339,110.519,25.613
8.6341,113.926,25.913
8.7341,117.159,26.213
8.834,119.098,26.513
8.934,116.852,26.813
9.034,115.813,27.113
9.1341,116.696,27.413
9.2339,116.328,27.713
9.334,113.637,28.013
9.434,115.039,28.313
9.5341,116,28.613
9.6341,92.5598,28.913
9.734,88.9736,29.213
9.8341,82.0531,29.513
9.934,81.931,29.813
10.0341,81.5592,30.113
10.1342,79.3732,30.413
10.2341,75.9495,30.713
10.3339,69.1662,31.013
10.434,63.874,31.313
10.5339,60.5419,31.613
10.6337,59.5627,31.913
10.7338,57.4794,32.213
10.8338,57.1683,32.513
10.9336,56.9888,32.813
11.0337,56.4275,33.113
11.1338,55.412,33.413
11.2339,54.1501,33.713
11.3339,52.7098,34.013
11.4339,51.845,34.313
11.534,50.9289,34.613
11.6338,50.2204,34.913
11.734,50.4625,35.213
11.834,50.1498,35.513
11.9342,49.6124,35.813
12.0341,48.3359,36.113
12.1341,47.7899,36.413
12.2341,46.691,36.713
12.3341,46.2032,37.013
12.4341,46.082,37.313
12.5342,46.0872,37.613
12.6342,46.3505,37.913
12.7342,45.6326,38.213
12.8342,45.0929,38.513
12.9342,44.8003,38.813
13.034,44.5716,39.113
13.1342,44.4261,39.413
13.2343,44.1978,39.713
13.3339,43.4126,40.013
13.434,43.1048,40.313
13.5343,42.938,40.613
13.6342,43.73,40.913
13.7341,43.964,41.213
13.8341,44.4173,41.513
13.9344,44.7612,41.813
14.0341,44.265,42.113
14.1341,44.306,42.413
14.2341,43.8022,42.713
14.3344,43.4369,43.013
14.4341,43.0572,43.313
14.534,42.5393,43.613
14.634,41.9207,43.913
14.7339,41.4131,44.213
14.834,41.1115,44.513
14.9339,40.8777,44.813
15.0339,40.5636,45.113
15.1339,40.8813,45.413
15.2339,39.4822,45.713
15.3339,38.4235,46.013
15.4336,37.3348,46.313
15.5339,36.1374,46.613
15.6339,34.133,46.913
15.7336,32.8287,47.213
15.8337,31.7998,47.513
15.9339,31.3317,47.813
16.034,31.0002,48.113
16.1339,30.5396,48.413
16.2339,30.3298,48.713
16.3341,29.9286,49.013
16.4339,29.5518,49.313
16.534,28.5725,49.613
16.6341,28.1076,49.913
16.7343,28.0268,50.213
16.8342,27.9932,50.513
16.9341,27.8758,50.813
17.0341,26.8664,51.113
17.134,26.925,51.413
17.2342,26.8048,51.713
17.3341,26.7562,52.013
17.4343,26.011,52.313
17.5343,25.8018,52.613
17.6342,24.7472,52.913
17.7344,24.1967,53.213
17.8341,22.9322,53.513
17.9343,22.7798,53.813
18.0343,22.6455,54.113
18.1339,22.211,54.413
18.2341,22.254,54.713
18.3343,22.1352,55.013
18.4342,21.5941,55.313
18.5341,21.5786,55.613
18.634,21.4451,55.913
18.7342,21.3503,56.213
18.8339,21.2751,56.513
18.9339,21.9564,56.813
19.034,21.4834,57.113
19.1342,21.5908,57.413
19.2341,21.6549,57.713
19.334,21.622,58.013
19.4339,21.7254,58.313
19.5338,21.1338,58.613
19.634,21.2297,58.913
19.7337,21.2703,59.213
19.8339,21.5178,59.513
19.934,21.7663,59.813
20.0338,21.8906,60.113
20.134,22.1478,60.413
20.2337,22.215,60.713
20.334,22.5333,61.013
20.4339,22.7478,61.313
20.5337,22.8883,61.613
20.6339,23.0658,61.913
20.7341,23.4659,62.213
20.834,23.8792,62.513
20.934,24.1656,62.813
21.034,24.0755,63.113
21.1342,23.6826,63.413
21.234,23.4382,63.713
21.334,23.6645,64.013
21.4341,23.3151,64.313
21.5344,23.2001,64.613
21.6343,22.892,64.913
21.7343,22.2454,65.213
21.8343,22.349,65.513
21.9341,22.24,65.813
22.0343,22.1076,66.113
22.1341,22.6154,66.413
22.2343,22.4639,66.713
22.3344,22.8516,67.013
22.4341,22.9015,67.313
22.5345,23.4014,67.613
22.6341,23.2469,67.913
22.7343,23.2241,68.213
22.8342,23.2722,68.513
22.9339,23.379,68.813
23.0341,23.3738,69.113
23.1341,23.3689,69.413
23.2339,23.4103,69.713
23.3339,22.8804,70.013
23.434,22.6362,70.313
23.5342,21.905,70.613
23.6339,21.4592,70.913
23.7338,21.1131,71.213
23.8339,21.078,71.513
23.9342,20.8629,71.813
24.034,20.4808,72.113
24.134,20.2258,72.413
24.2339,19.8885,72.713
24.3338,19.2944,73.013
24.434,18.9998,73.313
24.5337,18.4427,73.613
24.6339,18.1825,73.913
24.734,17.8267,74.213
24.8337,17.3235,74.513
24.934,16.6619,74.813
25.0337,16.215,75.113
25.134,15.5255,75.413
25.2339,15.3111,75.713
25.3337,15.07,76.013
25.4339,14.8332,76.313
25.5341,14.7034,76.613
25.6339,14.3829,76.913
25.734,14.1661,77.213
25.834,13.3405,77.513
25.9344,12.0077,77.813
26.0341,11.3988,78.113
26.1341,9.06029,78.413
26.2342,8.77412,78.713
26.3345,7.98575,79.013
26.4343,8.15937,79.313
26.5344,7.88975,79.613
26.6343,7.77381,79.913
26.7341,7.51635,80.213
26.8344,7.04378,80.513
26.9341,6.82944,80.813
27.0342,6.67787,81.113
27.1343,6.19402,81.413
27.2339,6.19904,81.713
27.3344,6.10371,82.013
27.434,5.99731,82.313
27.5342,5.62079,82.613
27.6341,5.41637,82.913
27.7339,5.10447,83.213
27.834,4.92205,83.513
27.934,4.90332,83.813
28.0337,4.33723,84.113
28.1338,4.54714,84.413
28.2339,4.14263,84.713
28.3341,4.02507,85.013
28.4339,3.70832,85.313
28.5338,3.45638,85.613