File: Data/Selected_data/SSP_2025-03-19_D11_NO.csv
Crossheadmm,LoadN,Timesec
0.034,18.7105,0.114
0.0673,20.6103,0.214
0.1009,22.7632,0.314
0.1343,24.7229,0.414
0.1675,26.8553,0.514
0.2006,29.0876,0.614
0.234,31.2821,0.714
0.2675,33.4347,0.814
0.3009,35.9537,0.914
0.3343,38.3091,1.014
0.3675,40.9049,1.114
0.4008,43.6043,1.214
0.434,46.3351,1.314
0.4671,49.3537,1.414
0.5007,52.3324,1.514
0.5342,55.5897,1.614
0.5675,58.7639,1.714
0.6009,62.0093,1.814
0.6341,65.4469,1.914
0.6674,68.9096,2.014
0.7006,72.5546,2.114
0.734,76.5339,2.214
0.7674,80.5324,2.314
0.8008,84.3227,2.414
0.8342,88.428,2.514
0.8677,92.5866,2.614
0.901,96.9125,2.714
0.9342,101.388,2.814
0.9674,105.198,2.914
1.0008,109.673,3.014
1.0342,114.194,3.114
1.0676,118.81,3.214
1.101,123.487,3.314
1.1342,128.043,3.414
1.1676,132.407,3.514
1.201,137.351,3.614
1.2341,141.912,3.714
1.2673,146.232,3.814
1.3007,151.034,3.914
1.3342,155.498,4.014
1.3675,160.171,4.114
1.4009,164.696,4.214
1.4343,168.953,4.314
1.4676,172.98,4.414
1.5008,176.509,4.514
1.534,177.29,4.614
1.5673,180.017,4.714
1.6007,183.857,4.814
1.634,188.014,4.914
1.6675,192.689,5.014
1.7011,196.997,5.114
1.7342,200.597,5.214
1.7673,203.941,5.314
1.8006,208.116,5.414
1.8339,212.664,5.514
1.8675,217.421,5.614
1.9008,222.075,5.714
1.9342,226.283,5.814
1.9676,231.137,5.914
2.0009,235.783,6.014
2.0341,240.052,6.114
2.0673,244.404,6.214
2.1004,248.872,6.314
2.1339,252.691,6.414
2.1674,257.255,6.514
2.2008,261.844,6.614
2.2345,265.308,6.714
2.2678,269.6,6.814
2.3007,274.216,6.914
2.3337,277.978,7.014
2.3672,282.197,7.114
2.4007,286.699,7.214
2.434,290.983,7.314
2.4674,295.295,7.414
2.5009,299.407,7.514
2.5342,302.828,7.614
2.5674,306.2,7.714
2.6006,308.108,7.814
2.6339,311.615,7.914
2.6674,315.577,8.014
2.7008,319.403,8.114
2.7342,322.323,8.214
2.7675,317.316,8.314
2.8008,307.65,8.414
2.8339,285.158,8.514
2.867,284.099,8.614
2.9005,286.04,8.714
2.9341,287.332,8.814
2.9675,130.786,8.914
3.0009,113.281,9.014
3.0342,96.8078,9.114
3.0675,28.1261,9.214
3.1007,25.4647,9.314
3.1341,24.5795,9.414
3.1673,24.5543,9.514
3.2009,24.1837,9.614
3.2343,22.615,9.714
3.2678,21.7575,9.814
3.301,21.0507,9.914
3.3342,20.2935,10.014
3.3674,20.1185,10.114
3.4007,19.6544,10.214
3.4341,19.7448,10.314
3.4675,19.5267,10.414
3.5009,19.7294,10.514
3.5341,19.5856,10.614
3.5676,19.6281,10.714
3.6009,19.5547,10.814
3.6341,19.668,10.914
3.6674,19.6146,11.014
3.7006,19.5859,11.114
3.7341,19.2869,11.214
3.7676,18.786,11.314
3.801,18.654,11.414
3.8343,18.6831,11.514
3.8675,18.5698,11.614
3.9008,18.698,11.714
3.934,18.8215,11.814
3.9673,18.7482,11.914
4.0007,18.7564,12.014
4.034,18.7813,12.114
4.0675,18.9208,12.214
4.1011,18.9175,12.314
4.1342,18.9489,12.414
4.1672,19.0296,12.514
4.2005,19.1274,12.614
4.234,19.0087,12.714
4.2676,19.1606,12.814
4.3009,19.1961,12.914
4.3343,19.4245,13.014
4.3678,18.8151,13.114
4.4011,18.9283,13.214
4.4342,18.8822,13.314
4.4675,19.1043,13.414
4.5007,19.286,13.514
4.5342,19.4879,13.614
4.5677,19.5711,13.714
4.6012,19.7235,13.814
4.6348,19.9169,13.914
4.6681,20.1721,14.014
4.7008,20.3588,14.114
4.734,20.4825,14.214
4.7674,20.4769,14.314
4.8009,20.6137,14.414
4.8343,20.8392,14.514
4.8678,21.0582,14.614
4.9013,21.2259,14.714
4.9346,21.4568,14.814
4.9677,21.6206,14.914
5.001,21.3546,15.014
5.0343,21.4062,15.114
5.0678,21.8309,15.214
5.1013,21.6031,15.314
5.1347,21.7603,15.414
5.168,21.955,15.514
5.2012,22.0614,15.614
5.2343,22.1849,15.714
5.2675,22.4091,15.814
5.301,22.432,15.914
5.3345,22.6544,16.014
5.3679,22.785,16.114
5.4012,23.0527,16.214
5.4345,23.3705,16.314
5.4676,23.4524,16.414
5.501,23.7689,16.514
5.5344,23.7562,16.614
5.5676,24.0141,16.714
5.601,24.036,16.814
5.6346,23.5887,16.914
5.668,22.2891,17.014
5.7013,21.2409,17.114
5.7344,21.2788,17.214
5.7677,21.3443,17.314
5.801,21.583,17.414
5.8343,21.6992,17.514
5.8677,20.3232,17.614
5.9011,20.2424,17.714
5.9344,20.6403,17.814
5.9679,20.7871,17.914
6.0012,20.9735,18.014
6.0344,21.2048,18.114
6.0676,21.4994,18.214
6.1009,21.8306,18.314
6.1343,21.9992,18.414
6.1679,22.2513,18.514
6.2013,22.379,18.614
6.2346,22.5316,18.714
6.2678,22.5215,18.814
6.3011,22.8233,18.914
6.3344,23.0171,19.014
6.3677,23.3168,19.114
6.401,23.5359,19.214
6.4344,23.8063,19.314
6.4679,23.9522,19.414
6.5014,24.28,19.514
6.5345,24.4999,19.614
6.5675,24.8694,19.714
6.6009,25.1441,19.814
6.6342,25.6625,19.914
6.6678,25.8548,20.014
6.7012,25.9784,20.114
6.7345,26.3021,20.214
6.768,26.7407,20.314
6.8013,26.9133,20.414
6.8344,27.1189,20.514
6.8676,27.504,20.614
6.9008,27.4958,20.714
6.9343,27.7167,20.814
6.9679,28.0177,20.914
7.0013,28.3061,21.014
7.035,28.5199,21.114
7.0681,28.7565,21.214
7.1008,29.0322,21.314
7.1339,29.2109,21.414
7.1674,29.1551,21.514
7.2008,29.3041,21.614
7.2343,29.4659,21.714
7.2677,29.7708,21.814
7.3011,29.9187,21.914
7.3343,30.1199,22.014
7.3676,30.3821,22.114
7.4007,30.6767,22.214
7.4341,30.9657,22.314
7.4675,31.1669,22.414
7.5012,31.617,22.514
7.5345,31.752,22.614
7.5678,32.1246,22.714
7.6009,32.3613,22.814
7.6341,32.6226,22.914
7.6673,32.8857,23.014
7.7007,33.2443,23.114
7.7341,33.4002,23.214
7.7675,33.7998,23.314
7.8008,34.1288,23.414
7.8341,34.4288,23.514
7.8672,34.7315,23.614
7.9006,35.1211,23.714
7.934,34.5133,23.814
7.9672,34.5259,23.914
8.0007,34.8865,24.014
8.0343,34.5484,24.114
8.0676,34.5337,24.214
8.1008,34.1851,24.314
8.134,33.8368,24.414
8.1673,33.9833,24.514
8.2006,34.0241,24.614
8.2338,34.328,24.714
8.2673,34.6411,24.814
8.3006,34.8736,24.914
8.3339,35.2341,25.014
8.3675,35.404,25.114
8.4008,35.3752,25.214
8.434,35.6836,25.314
8.4673,35.9912,25.414
8.5005,36.0919,25.514
8.534,36.1783,25.614
8.5676,36.4309,25.714
8.601,36.5435,25.814
8.6343,36.497,25.914
8.6675,36.8694,26.014
8.7008,37.2135,26.114
8.7341,37.4462,26.214
8.7674,37.5793,26.314
8.8007,38.0215,26.414
8.8341,38.4012,26.514
8.8677,38.595,26.614
8.9012,38.9393,26.714
8.9342,38.9623,26.814
8.9674,39.1619,26.914
9.0008,39.2476,27.014