File: Data/Selected_data/SSP_2024-10-26_C2_NO.csv
Crossheadmm,LoadN,Timesec
0.0335,10.5461,0.112
0.0671,11.8199,0.212
0.1005,12.808,0.312
0.1338,13.6844,0.412
0.1672,14.6027,0.512
0.2005,15.6681,0.612
0.2337,16.3582,0.712
0.267,17.405,0.812
0.3003,18.4051,0.912
0.3338,19.0151,1.012
0.3671,19.7646,1.112
0.4005,20.8342,1.212
0.434,21.6981,1.312
0.4673,22.3957,1.412
0.5005,23.4439,1.512
0.5338,24.1219,1.612
0.5672,25.0571,1.712
0.6007,25.8934,1.812
0.634,26.9528,1.912
0.6674,27.7795,2.012
0.7007,28.662,2.112
0.734,29.6833,2.212
0.7673,30.5955,2.312
0.8005,31.4947,2.412
0.8337,32.4608,2.512
0.8672,33.5516,2.612
0.9006,34.5457,2.712
0.9342,35.8422,2.812
0.9674,36.874,2.912
1.0005,37.8163,3.012
1.0338,39.1472,3.112
1.0671,40.1787,3.212
1.1004,41.3987,3.312
1.134,42.5359,3.412
1.1674,43.6049,3.512
1.2007,44.9202,3.612
1.2341,46.1504,3.712
1.2675,47.4389,3.812
1.3009,48.7047,3.912
1.334,50.0055,4.012
1.3667,51.1714,4.112
1.4003,52.5741,4.212
1.434,53.8463,4.312
1.4673,55.2209,4.412
1.5006,56.518,4.512
1.5339,57.877,4.612
1.5672,59.1577,4.712
1.6005,60.5523,4.812
1.6338,61.8304,4.912
1.6672,63.3001,5.012
1.7006,64.6419,5.112
1.7339,65.9452,5.212
1.7673,67.518,5.312
1.8006,68.8933,5.412
1.834,70.377,5.512
1.8671,71.653,5.612
1.9004,73.0332,5.712
1.9338,74.3408,5.812
1.9673,75.8388,5.912
2.0004,77.1413,6.012
2.0337,78.7511,6.112
2.067,80.1522,6.212
2.1002,81.5506,6.312
2.1336,83.0667,6.412
2.167,84.3735,6.512
2.2004,85.7591,6.612
2.2338,87.3363,6.712
2.267,88.7831,6.812
2.3003,89.9066,6.912
2.3336,91.2241,7.012
2.3671,92.3392,7.112
2.4003,94.0912,7.212
2.4335,95.399,7.312
2.4671,96.6467,7.412
2.5005,98.3925,7.512
2.5338,99.7841,7.612
2.5671,101.403,7.712
2.6004,102.929,7.812
2.6337,104.662,7.912
2.667,106.147,8.012
2.7001,107.833,8.112
2.7337,109.492,8.212
2.7669,111.132,8.312
2.8004,112.975,8.412
2.8338,114.684,8.512
2.8671,116.573,8.612
2.9003,118.596,8.712
2.9336,120.128,8.812
2.9669,121.844,8.912
3.0004,123.8,9.012
3.0338,125.57,9.112
3.0671,127.378,9.212
3.1004,129.036,9.312
3.1338,131,9.412
3.167,133.001,9.512
3.2002,134.912,9.612
3.2334,136.721,9.712
3.2669,138.718,9.812
3.3003,140.59,9.912
3.3339,142.346,10.012
3.3671,144.386,10.112
3.4002,146.313,10.212
3.4335,148.059,10.312
3.4669,150.064,10.412
3.5003,151.881,10.512
3.5337,153.977,10.612
3.567,156.043,10.712
3.6003,157.747,10.812
3.6337,159.609,10.912
3.6672,161.504,11.012
3.7006,163.503,11.112
3.7336,165.332,11.212
3.7664,167.177,11.312
3.8,169.182,11.412
3.8336,171.28,11.512
3.8669,173.189,11.612
3.9002,175.037,11.712
3.9335,177.182,11.812
3.9668,179.088,11.912
4.0001,181.067,12.012
4.0333,183.163,12.112
4.0668,185.134,12.212
4.1001,187.225,12.312
4.1335,189.427,12.412
4.1669,191.385,12.512
4.2002,193.696,12.612
4.2335,195.695,12.712
4.2667,197.504,12.812
4.3,199.779,12.912
4.3335,201.795,13.012
4.3669,203.879,13.112
4.4001,206.102,13.212
4.4335,208.242,13.312
4.4668,210.293,13.412
4.4999,212.546,13.512
4.5333,214.627,13.612
4.5666,216.894,13.712
4.6,218.703,13.812
4.6334,220.955,13.912
4.6668,223.033,14.012
4.7002,225.182,14.112
4.7335,227.247,14.212
4.7669,229.475,14.312
4.8001,231.662,14.412
4.8334,233.826,14.512
4.867,236.039,14.612
4.9003,238.253,14.712
4.9336,240.42,14.812
4.967,242.527,14.912
5.0002,244.416,15.012
5.0336,246.605,15.112
5.0668,248.674,15.212
5.1,250.591,15.312
5.1335,252.686,15.412
5.1667,254.919,15.512
5.2003,256.785,15.612
5.2337,258.741,15.712
5.2669,260.989,15.812
5.3002,263.156,15.912
5.3335,265.13,16.012
5.3667,267.105,16.112
5.4002,269.109,16.212
5.4337,271.196,16.312
5.4671,273.205,16.412
5.5003,275.104,16.512
5.5336,277.163,16.612
5.5669,279.198,16.712
5.6001,280.869,16.812
5.6333,282.699,16.912
5.6666,284.507,17.012
5.7003,286.331,17.112
5.7338,288.03,17.212
5.767,290.046,17.312
5.8002,292.015,17.412
5.8335,294.112,17.512
5.8669,296.028,17.612
5.9003,298.068,17.712
5.9336,299.516,17.812
5.967,301.663,17.912
6.0004,303.493,18.012
6.0338,305.404,18.112
6.0673,307.36,18.212
6.1007,309.306,18.312
6.1336,311.156,18.412
6.1664,313.168,18.512
6.2,315.19,18.612
6.2337,317.241,18.712
6.267,318.917,18.812
6.3003,320.879,18.912
6.3336,319.859,19.012
6.367,321.284,19.112
6.4002,323.026,19.212
6.4335,325.067,19.312
6.4668,326.724,19.412
6.5003,328.55,19.512
6.5337,330.26,19.612
6.567,332.294,19.712
6.6004,333.801,19.812
6.6337,335.304,19.912
6.667,336.884,20.012
6.7002,337.854,20.112
6.7336,339.436,20.212
6.767,341.182,20.312
6.8003,342.839,20.412
6.8336,344.412,20.512
6.8668,346.137,20.612
6.9001,347.818,20.712
6.9335,349.106,20.812
6.9668,350.818,20.912
7,352.111,21.012
7.0336,353.39,21.112
7.0668,354.414,21.212
7.1,348.611,21.312
7.1335,344.346,21.412
7.1671,243.027,21.512
7.1915,9.19304,21.584