File: Data/Selected_data/SSP_2025-03-20_D9_NO.csv
Crossheadmm,LoadN,Timesec
0.0337,0.530937,0.112
0.1006,0.572379,0.312
0.1675,0.551688,0.512
0.234,0.781393,0.712
0.3006,1.02603,0.912
0.3672,1.1292,1.112
0.4342,1.38983,1.312
0.5009,1.48906,1.512
0.5675,1.62193,1.712
0.6342,2.06548,1.912
0.701,2.24446,2.112
0.7677,2.64043,2.312
0.8342,3.15754,2.512
0.9006,3.63433,2.712
0.9678,4.05487,2.912
1.0343,4.83756,3.112
1.1009,5.28996,3.312
1.1674,6.10896,3.512
1.2344,7.10603,3.712
1.301,8.15284,3.912
1.3674,8.92974,4.112
1.434,10.0023,4.312
1.501,11.1961,4.512
1.5675,12.4483,4.712
1.6341,13.7304,4.912
1.7006,15.4286,5.112
1.7676,16.7692,5.312
1.8341,18.6031,5.512
1.9006,20.6742,5.712
1.9674,23.3755,5.912
2.0342,26.2026,6.112
2.1004,29.5973,6.312
2.1673,32.9054,6.512
2.2338,36.5279,6.712
2.3006,40.3018,6.912
2.3673,43.7502,7.112
2.4337,48.1263,7.312
2.5004,52.4153,7.512
2.5674,56.6768,7.712
2.6338,60.2742,7.912
2.7004,64.5426,8.112
2.7669,67.4733,8.312
2.834,68.1203,8.512
2.9005,76.3179,8.712
2.9671,84.571,8.912
3.0338,93.1488,9.112
3.1006,102.633,9.312
3.1673,112.641,9.512
3.2337,122.852,9.712
3.3002,134.041,9.912
3.3674,145.335,10.112
3.434,145.925,10.312
3.5002,156.418,10.512
3.567,169.325,10.712
3.634,182.512,10.912
3.7005,195.135,11.112
3.7669,208.588,11.312
3.8336,222.643,11.512
3.9006,236.83,11.712
3.9672,251.399,11.912
4.0338,265.842,12.112
4.1003,280.465,12.312
4.1673,294.135,12.512
4.2339,308.448,12.712
4.3004,323.111,12.912
4.3672,337.294,13.112
4.4339,313.621,13.312
4.5003,319.615,13.512
4.5673,294.392,13.712
4.6339,290.674,13.912
4.7006,297.779,14.112
4.7674,290.212,14.312
4.8338,299.708,14.512
4.9006,303.297,14.712
4.9675,246.321,14.912
5.0341,248.497,15.112
5.1006,256.048,15.312
5.1671,257.314,15.512
5.2341,224.831,15.712
5.3008,191.527,15.912
5.3674,186.597,16.112
5.434,180.401,16.312
5.5009,183.758,16.512
5.5675,185.842,16.712
5.634,189.242,16.912
5.7006,151.85,17.112
5.7677,145.604,17.312
5.8343,131.438,17.512
5.9006,131.369,17.712
5.9673,132.634,17.912
6.0343,135.017,18.112
6.1009,131.169,18.312
6.1673,128.71,18.512
6.234,30.91,18.712
6.301,31.1002,18.912
6.3675,31.4124,19.112
6.434,30.606,19.312
6.5005,18.5373,19.512
6.5675,17.1695,19.712
6.6341,16.4089,19.912
6.7006,15.8405,20.112
6.7673,15.6221,20.312
6.834,14.8269,20.512
6.9003,14.1364,20.712
6.9673,13.5348,20.912
7.0338,12.8055,21.112
7.1005,12.0598,21.312
7.1673,11.6228,21.512
7.2337,11.2781,21.712
7.3005,10.8937,21.912
7.3673,10.7257,22.112
7.4339,9.66257,22.312
7.5005,9.15865,22.512
7.5669,8.67361,22.712
7.634,8.20315,22.912
7.7006,8.06889,23.112
7.7672,7.70541,23.312
7.8337,7.2892,23.512
7.9007,7.10527,23.712
7.9673,6.89861,23.912
8.0338,6.72711,24.112
8.1003,6.74328,24.312
8.1674,6.40433,24.512
8.2342,5.4169,24.712
8.3005,5.30573,24.912
8.3672,5.22606,25.112
8.4342,5.17491,25.312
8.5008,5.24555,25.512
8.5672,5.07294,25.712
8.634,4.92968,25.912
8.7009,4.90538,26.112
8.7675,4.90026,26.312
8.8341,4.83049,26.512
8.9006,4.86905,26.712
8.9677,4.92623,26.912
9.0343,4.73675,27.112
9.1009,4.68524,27.312
9.1676,4.64627,27.512
9.2342,4.43307,27.712
9.3007,4.17233,27.912
9.3675,4.20793,28.112
9.4342,3.99112,28.312
9.5008,3.77479,28.512
9.5677,3.83401,28.712
9.634,3.89446,28.912
9.7009,3.52159,29.112
9.7676,3.21975,29.312
9.8343,3.48416,29.512
9.9008,3.49629,29.712
9.9672,3.41381,29.912
10.0343,3.3229,30.112
10.1009,3.21354,30.312
10.1675,3.35862,30.512
10.2341,3.38562,30.712
10.3009,3.28541,30.912
10.3675,3.23473,31.112
10.434,3.29001,31.312
10.5006,3.36738,31.512
10.5676,3.48588,31.712
10.6343,3.51571,31.912
10.7006,3.69784,32.112
10.7672,3.60979,32.312
10.8343,3.57964,32.512
10.9008,3.60438,32.712
10.9672,3.70937,32.912
11.034,3.78746,33.112
11.1009,3.63759,33.312
11.1674,3.3147,33.512
11.234,3.27261,33.712