File: Data/Selected_data/SSP_2025-03-20_D6_NO.csv
Crossheadmm,LoadN,Timesec
0.0344,2.04476,0.114
0.0676,1.88337,0.214
0.1011,4.90817,0.314
0.1343,7.70512,0.414
0.1677,10.2863,0.514
0.2011,12.7808,0.614
0.2344,15.174,0.714
0.2677,17.5132,0.814
0.3011,19.628,0.914
0.3344,21.7524,1.014
0.3677,23.8653,1.114
0.401,25.9094,1.214
0.4343,27.6551,1.314
0.4676,29.6185,1.414
0.501,31.1516,1.514
0.5343,32.7765,1.614
0.5676,34.7897,1.714
0.601,36.7215,1.814
0.6342,38.6278,1.914
0.6675,40.5153,2.014
0.7009,42.6378,2.114
0.7343,44.602,2.214
0.7675,46.9404,2.314
0.8007,49.7137,2.414
0.8341,52.6778,2.514
0.8673,55.7181,2.614
0.9008,59.011,2.714
0.9342,62.1743,2.814
0.9674,65.5562,2.914
1.0008,69.1257,3.014
1.0339,72.6786,3.114
1.0671,76.3325,3.214
1.1005,80.5629,3.314
1.1343,85.0608,3.414
1.1676,89.3592,3.514
1.2005,92.6118,3.614
1.2338,95.804,3.714
1.2674,100.783,3.814
1.3007,104.632,3.914
1.3339,107.367,4.014
1.3672,112.32,4.114
1.4007,115.835,4.214
1.434,119.44,4.314
1.4673,121.953,4.414
1.5006,124.087,4.514
1.5338,125.499,4.614
1.5672,125.549,4.714
1.6006,133.771,4.814
1.6339,144.283,4.914
1.6675,153.91,5.014
1.7009,163.681,5.114
1.7342,173.372,5.214
1.7673,182.648,5.314
1.8006,192.197,5.414
1.834,201.907,5.514
1.8673,211.552,5.614
1.9005,221.411,5.714
1.934,231.372,5.814
1.9674,241.205,5.914
2.0006,250.721,6.014
2.0339,259.861,6.114
2.0673,269.037,6.214
2.1009,277.852,6.314
2.1341,285.801,6.414
2.1672,293.467,6.514
2.2007,301.364,6.614
2.2342,308.835,6.714
2.2675,316.176,6.814
2.3009,323.275,6.914
2.3343,330.393,7.014
2.3678,337.083,7.114
2.4009,343.631,7.214
2.4341,349.941,7.314
2.4675,356.561,7.414
2.5008,362.999,7.514
2.5341,369.704,7.614
2.5675,376.886,7.714
2.6009,383.496,7.814
2.6342,390.401,7.914
2.6675,397.323,8.014
2.7007,404.317,8.114
2.7341,411.603,8.214
2.7673,418.826,8.314
2.8008,426.203,8.414
2.8341,433.168,8.514
2.8675,440.174,8.614
2.9009,447.435,8.714
2.9341,454.211,8.814
2.9674,461.038,8.914
3.0008,468.092,9.014
3.0341,474.691,9.114
3.0674,481.453,9.214
3.1008,488.514,9.314
3.1342,495.189,9.414
3.1674,501.795,9.514
3.2006,508.182,9.614
3.2339,514.676,9.714
3.2672,521.223,9.814
3.3006,527.685,9.914
3.3341,534.048,10.014
3.3674,540.446,10.114
3.4007,546.396,10.214
3.4339,552.505,10.314
3.467,558.416,10.414
3.5003,564.786,10.514
3.5341,571.087,10.614
3.5673,576.764,10.714
3.6002,581.972,10.814
3.6336,587.658,10.914
3.6671,593.383,11.014
3.7005,599.021,11.114
3.7337,604.485,11.214
3.7668,609.995,11.314
3.8003,615.821,11.414
3.8337,621.491,11.514
3.867,626.911,11.614
3.9003,632.346,11.714
3.9335,637.309,11.814
3.9669,642.531,11.914
4.0002,647.502,12.014
4.0335,652.322,12.114
4.067,657.875,12.214
4.1004,663.033,12.314
4.1337,668.266,12.414
4.1669,673.1,12.514
4.2001,677.935,12.614
4.2336,682.951,12.714
4.2668,688.137,12.814
4.3,693.171,12.914
4.3334,698.038,13.014
4.3668,702.562,13.114
4.4001,707.019,13.214
4.4333,710.483,13.314
4.4671,703.434,13.414
4.5012,5.76191,13.514
4.5342,6.02361,13.614
4.5673,6.69533,13.714
4.6009,6.80954,13.814
4.6343,7.06466,13.914
4.6677,7.47211,14.014
4.701,7.9438,14.114
4.7343,8.02085,14.214
4.7677,8.2752,14.314
4.8009,8.58131,14.414
4.8341,8.67933,14.514
4.8676,8.47724,14.614
4.9007,8.50163,14.714
4.9341,8.89488,14.814
4.9675,8.57084,14.914
5.0009,8.80565,15.014