File: Data/Selected_data/SSP_2022-12-08_B11_OPER.csv
Crossheadmm,LoadN,Timesec
0.0,2.04,0.000
0.06,2.61,0.200
0.13,2.87,0.400
0.2,3.41,0.600
0.26,3.85,0.800
0.33,4.17,1.000
0.4,4.51,1.200
0.46,4.87,1.400
0.53,5.35,1.600
0.6,5.68,1.800
0.67,6.32,2.000
0.73,6.78,2.200
0.8,7.28,2.400
0.86,7.81,2.600
0.93,8.39,2.800
1.0,8.98,3.000
1.07,9.65,3.200
1.13,10.35,3.400
1.2,10.8,3.600
1.27,11.07,3.800
1.33,11.82,4.000
1.4,12.7,4.200
1.47,13.75,4.400
1.53,14.57,4.600
1.6,15.7,4.800
1.67,16.78,5.000
1.73,17.93,5.200
1.8,19.21,5.400
1.87,20.18,5.600
1.93,21.19,5.800
2.0,22.53,6.000
2.07,24.09,6.200
2.13,25.37,6.400
2.2,26.78,6.600
2.27,28.5,6.800
2.33,29.98,7.000
2.4,31.45,7.200
2.47,33.0,7.400
2.53,34.83,7.600
2.6,33.65,7.800
2.67,35.37,8.000
2.73,37.08,8.200
2.8,38.85,8.400
2.87,39.65,8.600
2.93,40.9,8.800
3.0,40.33,9.000
3.07,41.37,9.200
3.13,42.32,9.400
3.2,41.68,9.600
3.27,42.36,9.800
3.33,42.3,10.000
3.4,42.01,10.200
3.47,42.45,10.400
3.53,43.59,10.600
3.6,44.83,10.800
3.67,45.9,11.000
3.73,46.49,11.200
3.8,44.92,11.400
3.87,45.9,11.600
3.93,45.82,11.800
4.0,46.19,12.000
4.06,46.98,12.200
4.13,47.9,12.400
4.2,49.29,12.600
4.26,50.04,12.800
4.33,50.38,13.000
4.4,50.95,13.200
4.46,51.01,13.400
4.53,49.91,13.600
4.6,50.6,13.800
4.67,51.61,14.000
4.73,51.23,14.200
4.8,51.2,14.400
4.86,51.4,14.600
4.93,51.81,14.800
5.0,52.33,15.000
5.07,53.06,15.200
5.13,54.33,15.400
5.2,54.4,15.600
5.26,55.06,15.800
5.33,56.19,16.000
5.4,57.8,16.200
5.47,59.56,16.400
5.53,61.19,16.600
5.6,62.58,16.800
5.66,63.25,17.000
5.73,64.48,17.200
5.8,66.22,17.400
5.87,68.08,17.600
5.93,70.05,17.800
6.0,71.8,18.000
6.07,74.06,18.200
6.13,76.46,18.400
6.2,78.48,18.600
6.27,80.63,18.800
6.33,82.31,19.000
6.4,83.61,19.200
6.47,82.95,19.400
6.53,83.09,19.600
6.6,83.47,19.800
6.67,82.13,20.000
6.73,82.09,20.200
6.8,79.74,20.400
6.87,80.04,20.600
6.93,81.31,20.800
7.0,83.04,21.000
7.07,83.74,21.200
7.13,84.73,21.400
7.2,84.46,21.600
7.27,84.56,21.800
7.33,85.3,22.000
7.4,86.53,22.200
7.47,86.99,22.400
7.53,88.01,22.600
7.6,88.01,22.800
7.67,89.29,23.000
7.73,87.45,23.200
7.8,88.27,23.400
7.87,88.91,23.600
7.93,88.91,23.800
8.0,88.65,24.000
8.06,88.57,24.200
8.13,88.85,24.400
8.2,89.19,24.600
8.27,89.12,24.800
8.33,89.19,25.000
8.4,88.96,25.200
8.46,86.76,25.400
8.53,86.28,25.600
8.6,86.71,25.800
8.67,87.57,26.000
8.73,87.93,26.200
8.8,87.73,26.400
8.86,88.04,26.600
8.93,87.46,26.800
9.0,87.88,27.000
9.06,88.62,27.200
9.13,89.35,27.400
9.2,89.1,27.600
9.26,89.82,27.800
9.33,90.68,28.000
9.4,91.37,28.200
9.46,92.35,28.400
9.53,93.24,28.600
9.6,94.68,28.800
9.66,94.54,29.000
9.73,94.99,29.200
9.8,95.66,29.400
9.86,96.73,29.600
9.93,97.85,29.800
10.0,98.54,30.000
10.06,97.73,30.200
10.13,96.76,30.400
10.2,96.42,30.600
10.26,95.55,30.800
10.33,93.49,31.000
10.4,92.95,31.200
10.46,93.12,31.400
10.53,89.4,31.600
10.6,87.92,31.800
10.67,87.66,32.000
10.73,88.07,32.200
10.8,88.84,32.400
10.87,89.46,32.600
10.93,90.41,32.800
11.0,90.95,33.000
11.07,91.46,33.200
11.13,91.94,33.400
11.2,92.16,33.600
11.27,89.94,33.800
11.33,88.57,34.000
11.4,87.91,34.200
11.47,85.65,34.400
11.53,84.13,34.600
11.6,80.86,34.800
11.67,74.91,35.000
11.73,71.84,35.200
11.8,69.99,35.400
11.87,68.59,35.600
11.93,67.09,35.800
12.0,66.17,36.000
12.07,64.93,36.200
12.13,64.43,36.400
12.2,63.93,36.600
12.27,64.04,36.800
12.33,63.8,37.000
12.4,63.7,37.200
12.47,63.52,37.400
12.53,63.46,37.600
12.6,63.28,37.800
12.67,62.95,38.000
12.73,62.74,38.200
12.8,62.32,38.400
12.87,61.8,38.600
12.93,61.28,38.800
13.0,60.71,39.000
13.07,59.58,39.200
13.13,58.8,39.400
13.2,58.42,39.600
13.26,58.08,39.800
13.33,56.94,40.000
13.4,56.37,40.200
13.46,55.91,40.400
13.53,55.48,40.600
13.6,54.84,40.800
13.66,54.42,41.000
13.73,53.89,41.200
13.8,52.91,41.400
13.86,51.46,41.600
13.93,50.35,41.800
14.0,49.54,42.000
14.06,49.26,42.200
14.13,49.37,42.400
14.2,49.21,42.600
14.26,48.9,42.800
14.33,48.35,43.000
14.4,47.75,43.200
14.46,47.31,43.400
14.53,47.26,43.600
14.6,47.2,43.800
14.66,47.18,44.000
14.73,47.25,44.200
14.8,47.2,44.400
14.86,47.31,44.600
14.93,34.54,44.800
15.0,32.11,45.000
15.07,31.26,45.200
15.13,30.68,45.400
15.2,30.19,45.600
15.26,29.81,45.800
15.33,29.71,46.000
15.4,29.42,46.200
15.47,29.48,46.400
15.53,29.27,46.600
15.6,29.04,46.800
15.67,28.84,47.000
15.73,28.92,47.200
15.8,28.82,47.400
15.87,28.53,47.600
15.93,28.43,47.800
16.0,28.36,48.000
16.07,28.31,48.200
16.13,27.6,48.400
16.2,26.95,48.600
16.27,26.69,48.800
16.33,25.6,49.000
16.4,24.07,49.200
16.47,23.25,49.400
16.53,22.71,49.600
16.6,22.3,49.800
16.66,21.92,50.000
16.73,21.41,50.200
16.8,20.87,50.400
16.86,19.73,50.600