File: Data/Selected_data/SSP_2025-03-18_D5_NO.csv
Crossheadmm,LoadN,Timesec
0.0342,5.00684,0.115
0.0674,6.44708,0.215
0.101,8.20055,0.315
0.1343,9.79663,0.415
0.1677,11.1558,0.515
0.2011,12.5248,0.615
0.2344,14.2544,0.715
0.2678,15.7505,0.815
0.3012,17.3764,0.915
0.3345,18.7639,1.015
0.3678,20.4176,1.115
0.4011,21.9321,1.215
0.4344,23.4525,1.315
0.4678,25.0629,1.415
0.5011,26.4034,1.515
0.5344,28.2473,1.615
0.5676,29.4167,1.715
0.601,31.1512,1.815
0.6346,32.8043,1.915
0.6679,34.4594,2.015
0.7011,36.0239,2.115
0.7344,37.7983,2.215
0.7678,39.3756,2.315
0.8012,41.078,2.415
0.8345,42.8935,2.515
0.8679,44.8828,2.615
0.9013,46.5559,2.715
0.9346,48.7639,2.815
0.9679,50.6021,2.915
1.0013,52.9952,3.015
1.0345,54.6127,3.115
1.0678,56.8442,3.215
1.1012,58.7766,3.315
1.1349,60.8852,3.415
1.1681,63.0905,3.515
1.2012,65.4386,3.615
1.2346,67.7594,3.715
1.2681,70.4209,3.815
1.3014,72.6189,3.915
1.3348,75.3389,4.015
1.3681,77.9493,4.115
1.4017,80.4946,4.215
1.4352,83.2767,4.315
1.4679,85.9841,4.415
1.5011,88.8358,4.515
1.5345,91.572,4.615
1.568,94.5849,4.715
1.6014,97.7998,4.815
1.6347,100.796,4.915
1.668,104.138,5.015
1.7014,107.49,5.115
1.7348,110.718,5.215
1.7681,114.084,5.315
1.8014,117.289,5.415
1.8347,120.607,5.515
1.868,124.219,5.615
1.9012,127.807,5.715
1.9347,131.907,5.815
1.9682,135.269,5.915
2.0014,139.319,6.015
2.0347,142.586,6.115
2.068,146.557,6.215
2.1013,150.417,6.315
2.1347,154.064,6.415
2.1681,157.999,6.515
2.2013,161.75,6.615
2.2346,165.335,6.715
2.2679,169.219,6.815
2.3012,172.955,6.915
2.3347,177.254,7.015
2.3681,181.199,7.115
2.4013,185.15,7.215
2.4345,189.443,7.315
2.4677,193.708,7.415
2.501,198.519,7.515
2.5344,203.108,7.615
2.5679,207.835,7.715
2.6013,212.067,7.815
2.6345,216.495,7.915
2.668,220.96,8.015
2.7014,225.412,8.115
2.7346,230.07,8.215
2.7678,234.997,8.315
2.8011,239.689,8.415
2.8345,245.097,8.515
2.8679,250.211,8.615
2.9011,255.362,8.715
2.9345,260.85,8.815
2.9676,266.323,8.915
3.001,271.762,9.015
3.0345,277.858,9.115
3.0679,283.578,9.215
3.1011,289.465,9.315
3.1343,295.429,9.415
3.1677,301.272,9.515
3.2011,307.085,9.615
3.2345,313.018,9.715
3.2677,319.01,9.815
3.301,325.273,9.915
3.3343,331.263,10.015
3.3677,337.56,10.115
3.401,343.843,10.215
3.4342,350.471,10.315
3.4675,354.19,10.415
3.5009,360.792,10.515
3.5345,366.847,10.615
3.5677,370.102,10.715
3.6009,375.798,10.815
3.6342,382.341,10.915
3.6677,386.115,11.015
3.701,392.822,11.115
3.7343,399.555,11.215
3.7677,404.163,11.315
3.8013,410.983,11.415
3.8346,417.831,11.515
3.8674,424.583,11.615
3.9006,431.23,11.715
3.9341,437.011,11.815
3.9674,443.536,11.915
4.0009,449.911,12.015
4.0342,455.897,12.115
4.0674,462.225,12.215
4.1008,468.477,12.315
4.1342,474.861,12.415
4.1675,477.531,12.515
4.2009,481.439,12.615
4.2341,487.953,12.715
4.2674,494.51,12.815
4.3007,500.747,12.915
4.3341,506.858,13.015
4.3676,501.677,13.115
4.4008,507.202,13.215
4.4341,513.221,13.315
4.4674,516.573,13.415
4.5007,518.486,13.515
4.5347,1.86229,13.615
4.5679,0.793172,13.715
4.6011,0.694082,13.815
4.6344,1.02761,13.915
4.6678,1.15266,14.015
4.7011,1.25316,14.115
4.7346,1.13616,14.215
4.7679,1.28383,14.315
4.8011,1.155,14.415
4.8344,1.25477,14.515
4.8676,1.6155,14.615
4.9009,1.75531,14.715
4.9344,1.88239,14.815
4.9679,1.91805,14.915
5.0012,1.89474,15.015
5.0345,2.17304,15.115
5.068,2.25489,15.215
5.1014,2.38089,15.315
5.1346,2.49894,15.415
5.1679,2.70305,15.515
5.2013,2.95118,15.615
5.2347,3.02996,15.715
5.2681,3.22877,15.815
5.3014,3.23473,15.915
5.3347,3.68459,16.015
5.3678,3.51867,16.115
5.4013,3.60964,16.215