File: Data/Selected_data/SSP_2025-03-20_D7_NO.csv
Crossheadmm,LoadN,Timesec
0.0897,5.74163,0.301
0.1565,7.3886,0.501
0.2233,9.29924,0.701
0.2899,11.1427,0.901
0.3564,13.6221,1.101
0.4233,15.8474,1.301
0.4901,18.1711,1.501
0.5565,21.1748,1.701
0.623,24.4914,1.901
0.6896,27.8021,2.101
0.7567,31.6284,2.301
0.8229,35.5149,2.501
0.8895,39.7129,2.701
0.9564,43.9839,2.901
1.0232,47.9387,3.101
1.0898,52.2483,3.301
1.156,56.5955,3.501
1.223,61.3006,3.701
1.2898,65.9411,3.901
1.3563,70.0005,4.101
1.4228,71.944,4.301
1.4896,75.1486,4.501
1.5565,80.6643,4.701
1.6229,85.115,4.901
1.6894,91.0838,5.101
1.7563,97.6266,5.301
1.823,104.32,5.501
1.8894,111.79,5.701
1.956,119.59,5.901
2.0228,127.392,6.101
2.0895,134.671,6.301
2.1563,142.965,6.501
2.2229,151.115,6.701
2.2893,159.233,6.901
2.3565,167.763,7.101
2.4227,176.039,7.301
2.4894,184.112,7.501
2.5561,192.175,7.701
2.623,199.971,7.901
2.6896,207.812,8.101
2.7562,215.807,8.301
2.8231,223.267,8.501
2.8899,226.744,8.701
2.9564,233.279,8.901
3.0229,239.966,9.101
3.0895,246.232,9.301
3.1567,252.752,9.501
3.223,250.855,9.701
3.2897,244.812,9.901
3.3565,247.825,10.101
3.4234,252.999,10.301
3.4899,255.404,10.501
3.5563,251.09,10.701
3.6232,249.931,10.901
3.6901,233.119,11.101
3.7565,218.6,11.301
3.8232,176.985,11.501
3.8898,154.641,11.701
3.9568,154.677,11.901
4.0233,157.674,12.101
4.0898,158.258,12.301
4.1566,154.303,12.501
4.2234,149.908,12.701
4.2897,117.497,12.901
4.3565,98.8282,13.101
4.4232,101.026,13.301
4.4899,100.335,13.501
4.5567,101.696,13.701
4.6231,104.372,13.901
4.6895,107.079,14.101
4.7567,109.127,14.301
4.8229,106.835,14.501
4.8895,106.404,14.701
4.9561,108.104,14.901
5.0231,110.373,15.101
5.0897,107.046,15.301
5.1562,99.7691,15.501
5.223,101.385,15.701
5.2897,102.864,15.901
5.3562,102.205,16.101
5.4227,102.933,16.301
5.4894,104.353,16.501
5.5565,100.273,16.701
5.6228,85.284,16.901
5.6894,86.2399,17.101
5.7563,87.2541,17.301
5.8231,88.1326,17.501
5.8896,85.3304,17.701
5.956,29.8507,17.901
6.0229,28.7115,18.101
6.0898,28.4455,18.301
6.1563,28.8742,18.501
6.2228,29.2951,18.701
6.2895,29.5719,18.901
6.3565,30.147,19.101
6.423,30.5058,19.301
6.4894,31.0022,19.501
6.5563,31.3725,19.701
6.623,31.8134,19.901
6.6895,32.2463,20.101
6.7563,32.7123,20.301
6.823,32.9834,20.501
6.8898,33.2994,20.701
6.9568,33.4583,20.901
7.0229,34.0516,21.101
7.0896,33.7998,21.301
7.1568,34.0608,21.501
7.2231,33.8505,21.701
7.2898,33.2741,21.901
7.3564,32.4484,22.101
7.4234,31.6408,22.301
7.4901,31.2059,22.501
7.5566,31.2206,22.701
7.6233,31.2526,22.901
7.6901,31.2239,23.101
7.7567,31.4935,23.301
7.8232,31.7672,23.501
7.8898,31.8729,23.701
7.957,32.0365,23.901
8.0233,31.5174,24.101
8.0899,31.7413,24.301
8.1567,31.3696,24.501
8.2236,31.5576,24.701
8.2901,31.4942,24.901
8.3565,31.426,25.101
8.4233,30.887,25.301
8.4902,31.0144,25.501
8.5567,31.0276,25.701
8.6232,30.9719,25.901
8.6897,30.8881,26.101
8.7568,30.8231,26.301
8.8232,30.8496,26.501
8.8897,30.6166,26.701
8.9565,30.7242,26.901
9.0232,29.6331,27.101
9.0896,29.108,27.301
9.1564,28.9762,27.501
9.2229,28.8022,27.701
9.2897,28.6589,27.901
9.3567,28.4459,28.101
9.4226,28.114,28.301
9.4894,28.0662,28.501
9.5565,28.0095,28.701
9.6229,28.1021,28.901
9.6895,27.6561,29.101
9.7561,27.6399,29.301
9.8231,27.5338,29.501
9.8897,27.2777,29.701
9.9562,27.1269,29.901
10.0229,26.9206,30.101
10.0897,26.5501,30.301
10.1563,26.5617,30.501
10.2228,26.1932,30.701
10.2894,25.9187,30.901
10.3564,25.6359,31.101
10.4229,25.5986,31.301