File: Data/Selected_data/SSP_2025-03-17_D3_OPER.csv
Crossheadmm,LoadN,Timesec
0.0349,0.450457,0.116
0.1682,0.622625,0.516
0.3017,0.581869,0.916
0.435,0.738324,1.316
0.5687,0.921577,1.716
0.7018,1.06537,2.116
0.8353,1.36636,2.516
0.9683,1.61265,2.916
1.102,1.9741,3.316
1.2351,2.54976,3.716
1.3686,3.01805,4.116
1.5016,3.53495,4.516
1.6349,4.23929,4.916
1.7684,4.98567,5.316
1.9016,5.77328,5.716
2.0349,6.68506,6.116
2.1684,7.74836,6.516
2.3017,8.56355,6.916
2.435,9.6843,7.316
2.568,10.6709,7.716
2.7015,11.9242,8.116
2.8347,12.9136,8.516
2.9684,14.058,8.916
3.1015,13.7585,9.316
3.235,14.708,9.716
3.3681,15.6599,10.116
3.5017,15.7256,10.516
3.635,16.0163,10.916
3.7684,16.8702,11.316
3.9016,17.9058,11.716
4.0349,18.8167,12.116
4.1685,20.1521,12.516
4.3017,21.3195,12.916
4.435,22.7608,13.316
4.5686,24.2002,13.716
4.7018,25.2923,14.116
4.8353,26.9534,14.516
4.9683,28.511,14.916
5.1018,30.2414,15.316
5.2351,32.1365,15.716
5.3687,34.0625,16.116
5.5018,36.018,16.516
5.6353,37.7681,16.916
5.7684,35.3346,17.316
5.9019,34.3175,17.716
6.0353,36.3458,18.116
6.1685,36.7747,18.516
6.3017,38.5759,18.916
6.4349,39.5345,19.316
6.5685,39.8481,19.716
6.7016,40.557,20.116
6.8349,42.2794,20.516
6.9683,41.4854,20.916
7.1016,33.6779,21.316
7.235,32.783,21.716
7.3679,31.3886,22.116
7.5014,30.9032,22.516
7.6347,31.0029,22.916
7.7682,31.3332,23.316
7.9016,31.5928,23.716
8.035,30.3509,24.116
8.1681,29.8869,24.516
8.3017,29.8128,24.916
8.4351,29.2157,25.316
8.5682,29.3014,25.716
8.7016,29.613,26.116
8.835,29.9264,26.516
8.9686,29.6403,26.916
9.1017,29.4919,27.316
9.235,29.5252,27.716
9.3686,28.9174,28.116
9.5019,28.1401,28.516
9.6353,27.5409,28.916
9.7683,26.9823,29.316
9.9018,26.7422,29.716
10.0353,26.4785,30.116
10.1687,22.9386,30.516
10.302,20.4901,30.916
10.4354,16.9195,31.316
10.5685,15.5502,31.716
10.702,15.3382,32.116
10.8354,14.909,32.516
10.9684,13.3141,32.916
11.1016,13.2393,33.316
11.2349,13.4682,33.716
11.3684,13.7763,34.116
11.5014,13.9478,34.516
11.6347,14.1203,34.916
11.7682,14.3164,35.316
11.9016,13.7425,35.716
12.035,13.762,36.116
12.168,13.777,36.516
12.3015,13.8644,36.916
12.4349,13.4725,37.316
12.5682,13.8062,37.716
12.7016,13.5841,38.116
12.8349,13.5159,38.516
12.9682,13.4656,38.916
13.1017,13.4811,39.316
13.2352,13.565,39.716
13.3682,13.6602,40.116
13.5017,13.6111,40.516
13.635,12.8963,40.916
13.7687,12.8002,41.316
13.9018,12.7575,41.716
14.035,12.9857,42.116
14.1686,12.9561,42.516
14.302,13.1669,42.916
14.4354,13.2177,43.316
14.5685,13.2491,43.716
14.7019,13.2909,44.116
14.8353,10.3002,44.516
14.9686,10.4357,44.916
15.102,10.3699,45.316
15.2352,10.5457,45.716
15.3684,10.5689,46.116
15.5018,10.5515,46.516
15.6353,10.5802,46.916
15.7681,10.452,47.316
15.9016,10.3887,47.716
16.0348,10.0357,48.116
16.1684,9.92155,48.516
16.3015,9.6402,48.916
16.4347,9.61315,49.316
16.5682,9.63174,49.716
16.7017,9.36747,50.116
16.8349,9.23379,50.516
16.9681,9.27149,50.916
17.1015,9.19226,51.316
17.2349,9.06823,51.716
17.3682,9.16626,52.116
17.5016,9.19178,52.516
17.6349,8.99706,52.916
17.7682,9.03556,53.316
17.9017,9.03393,53.716
18.0352,8.67952,54.116
18.1681,8.53423,54.516
18.3018,8.4588,54.916
18.4351,8.30583,55.316
18.5688,8.12999,55.716
18.7019,8.07727,56.116
18.8351,8.04345,56.516
18.9686,8.0894,56.916
19.1021,7.92483,57.316
19.2353,7.90553,57.716
19.3685,7.67275,58.116
19.5019,7.69155,58.516
19.6352,7.46826,58.916
19.7685,7.44342,59.316
19.902,7.37346,59.716
20.0352,7.39069,60.116
20.1684,7.33531,60.516
20.3018,7.43892,60.916
20.4354,7.28185,61.316
20.5682,7.09211,61.716
20.7017,7.00929,62.116
20.8349,7.16936,62.516
20.9685,6.89206,62.916
21.1016,6.75631,63.316
21.2347,6.83212,63.716
21.3683,6.8298,64.116
21.5018,6.86413,64.516
21.6349,6.80956,64.916
21.7682,6.94477,65.316
21.9016,6.8908,65.716
22.035,6.87382,66.116
22.1683,6.92399,66.516
22.3018,7.05406,66.916
22.435,7.09245,67.316
22.5684,7.08137,67.716
22.7017,7.04729,68.116
22.8353,7.03067,68.516
22.9683,6.94325,68.916
23.1019,7.04594,69.316
23.2353,6.73357,69.716
23.3688,6.5746,70.116
23.5019,6.40893,70.516
23.6351,6.38612,70.916
23.7685,6.29314,71.316
23.9021,6.13143,71.716
24.0352,5.80454,72.116
24.1686,5.48797,72.516
24.3018,5.17613,72.916
24.4352,4.96612,73.316
24.5684,4.66578,73.716
24.7019,4.46181,74.116
24.8351,4.18537,74.516
24.9684,3.62685,74.916
25.1016,3.60737,75.316
25.2352,3.35157,75.716
25.368,3.27951,76.116
25.5015,3.07188,76.516
25.6349,3.03775,76.916
25.7684,3.22921,77.316
25.9014,3.12874,77.716
26.0346,3.157,78.116
26.1681,3.21475,78.516
26.3017,3.10098,78.916
26.4349,3.12554,79.316
26.5684,3.10901,79.716
26.7017,3.04874,80.116
26.8351,3.08663,80.516
26.9683,2.94499,80.916
27.1019,2.88701,81.316
27.2351,2.81414,81.716
27.3685,2.84009,82.116
27.5017,2.81256,82.516
27.6353,2.89975,82.916
27.7682,2.8773,83.316
27.9019,2.87912,83.716
28.0351,2.90304,84.116
28.1688,2.9212,84.516
28.3018,2.97282,84.916
28.435,2.96174,85.316
28.5684,2.92755,85.716
28.7021,2.90547,86.116
28.8351,2.86791,86.516
28.9686,2.95166,86.916
29.1018,2.94059,87.316
29.2351,2.92874,87.716
29.3682,3.05586,88.116
29.5018,2.97089,88.516
29.6349,3.02251,88.916
29.7684,3.02576,89.316
29.9014,2.97134,89.716
30.0351,3.02403,90.116
30.1679,3.05999,90.516
30.3015,2.92475,90.916
30.4347,2.89603,91.316
30.5684,2.81021,91.716
30.7014,2.79031,92.116
30.8348,2.68942,92.516
30.9681,2.68641,92.916
31.1019,2.69917,93.316
31.2349,2.60652,93.716
31.3687,2.43016,94.116
31.5018,2.47629,94.516
31.6353,2.45069,94.916
31.7682,2.30079,95.316
31.9019,2.23278,95.716
32.0351,2.3698,96.116
32.1686,1.97642,96.516
32.3016,0.997847,96.916
32.4354,0.89912,97.316
32.5682,0.942582,97.716
32.7019,0.881414,98.116
32.8351,0.781685,98.516
32.9689,0.782789,98.916
33.1017,0.633904,99.316
33.2352,0.673041,99.716
33.3683,0.625242,100.116
33.502,0.694424,100.516
33.5352,0.530408,100.616