File: Data/Selected_data/SSP_2025-03-19_D7_OPER.csv
Crossheadmm,LoadN,Timesec
0.0346,0.349895,0.115
0.1682,0.690635,0.515
0.3013,0.89686,0.915
0.4348,1.01148,1.315
0.5677,1.21265,1.715
0.7014,1.56185,2.115
0.8345,2.04091,2.515
0.968,2.42068,2.915
1.1012,3.08528,3.315
1.2347,3.74095,3.715
1.3679,4.5114,4.115
1.5012,5.26801,4.515
1.6343,6.3745,4.915
1.768,7.48691,5.315
1.9015,8.84728,5.715
2.0342,10.5807,6.115
2.1678,12.0151,6.515
2.3013,14.1498,6.915
2.4346,16.131,7.315
2.568,18.273,7.715
2.7012,20.601,8.115
2.8347,22.7675,8.515
2.9678,25.045,8.915
3.1016,26.9035,9.315
3.2347,28.8599,9.715
3.3682,31.3012,10.115
3.5014,32.2718,10.515
3.6349,33.6087,10.915
3.7681,35.8122,11.315
3.9014,35.1425,11.715
4.0346,37.001,12.115
4.1683,38.3832,12.515
4.3019,40.4848,12.915
4.4346,42.5991,13.315
4.5681,45.0002,13.715
4.7015,45.3516,14.115
4.8348,48.3243,14.515
4.9683,50.6964,14.915
5.1013,50.5603,15.315
5.2349,53.0097,15.715
5.3677,54.9808,16.115
5.5015,56.6437,16.515
5.6345,55.1146,16.915
5.7679,57.9478,17.315
5.9011,60.8334,17.715
6.0346,65.5234,18.115
6.1678,67.4601,18.515
6.301,70.5911,18.915
6.4343,73.8501,19.315
6.5679,73.6401,19.715
6.7016,63.33,20.115
6.8345,58.2674,20.515
6.9678,62.9252,20.915
7.1013,66.2125,21.315
7.2345,70.643,21.715
7.3681,74.876,22.115
7.5011,79.0862,22.515
7.6347,83.9151,22.915
7.7678,88.9844,23.315
7.9015,93.925,23.715
8.0346,96.5764,24.115
8.1681,101.166,24.515
8.3014,106.197,24.915
8.4349,110.733,25.315
8.5681,113.94,25.715
8.7013,111.126,26.115
8.8347,93.5338,26.515
8.9683,92.0319,26.915
9.1019,79.6434,27.315
9.2347,68.7391,27.715
9.3681,62.1063,28.115
9.5015,61.4313,28.515
9.6348,61.7179,28.915
9.7683,55.4325,29.315
9.9012,52.6228,29.715
10.0347,45.0294,30.115
10.1678,42.8121,30.515
10.3014,42.4425,30.915
10.4344,42.9195,31.315
10.5679,43.5069,31.715
10.7011,44.7293,32.115
10.8346,45.8045,32.515
10.9679,47.1065,32.915
11.1011,48.0061,33.315
11.2344,48.6894,33.715
11.3681,49.0339,34.115
11.5016,49.2883,34.515
11.6345,50.0521,34.915
11.7678,50.6566,35.315
11.9013,50.0521,35.715
12.0347,38.2572,36.115
12.1682,39.0256,36.515
12.3012,40.0785,36.915
12.4348,40.9014,37.315
12.568,41.9876,37.715
12.7017,43.7175,38.115
12.8348,44.8259,38.515
12.9681,44.754,38.915
13.1015,45.642,39.315
13.235,46.4081,39.715
13.3682,45.4336,40.115
13.5014,45.9449,40.515
13.6347,46.7251,40.915
13.7684,47.394,41.315
13.9019,47.8246,41.715
14.0348,48.0258,42.115
14.168,47.1806,42.515
14.3014,47.0518,42.915
14.4347,43.0216,43.315
14.5683,38.9751,43.715
14.7011,35.2499,44.115
14.8346,33.9928,44.515
14.9677,34.4174,44.915
15.1014,34.6806,45.315
15.2345,34.8228,45.715
15.3678,34.648,46.115
15.5012,33.5976,46.515
15.6347,32.9949,46.915
15.7679,32.6099,47.315
15.9012,32.5438,47.715
16.0344,32.6631,48.115
16.168,31.6979,48.515
16.3015,31.3717,48.915
16.4345,31.3065,49.315
16.5678,30.9053,49.715
16.7012,30.7956,50.115
16.8346,30.5207,50.515
16.9681,30.3776,50.915
17.101,30.1374,51.315
17.2347,30.0625,51.715
17.3679,29.8325,52.115
17.5016,29.4185,52.515
17.6348,28.9146,52.915
17.768,28.5648,53.315
17.9015,28.3625,53.715
18.0349,28.226,54.115
18.1683,28.124,54.515
18.3014,27.8404,54.915
18.4348,27.1619,55.315
18.5682,26.3529,55.715
18.7019,25.7093,56.115
18.8347,25.2585,56.515
18.968,24.7882,56.915
19.1014,24.5698,57.315
19.2348,24.6694,57.715
19.3682,24.0484,58.115
19.5011,23.929,58.515
19.6347,23.0573,58.915
19.7679,22.5293,59.315
19.9014,21.5225,59.715
20.0345,20.9641,60.115
20.1677,20.6264,60.515
20.3012,20.4761,60.915
20.4346,19.3521,61.315
20.5678,19.0654,61.715
20.7011,18.813,62.115
20.8345,18.8083,62.515
20.9679,18.589,62.915
21.1016,18.4691,63.315
21.2345,18.1426,63.715
21.3679,17.9084,64.115
21.5013,17.8329,64.515
21.6347,17.7383,64.915
21.7681,17.8543,65.315
21.9013,18.0914,65.715
22.0348,18.1069,66.115
22.1682,18.3462,66.515
22.3016,18.5812,66.915
22.4349,18.7446,67.315
22.5679,18.8727,67.715
22.7016,19.2528,68.115
22.8348,19.2024,68.515
22.9682,19.3617,68.915
23.1014,19.2992,69.315
23.2348,19.4253,69.715
23.3681,19.5596,70.115
23.5019,19.5896,70.515
23.6347,19.5605,70.915
23.7681,19.8855,71.315
23.9013,19.6792,71.715
24.0347,19.5338,72.115
24.168,19.5573,72.515
24.3012,19.3447,72.915
24.4344,19.2743,73.315
24.5679,19.1443,73.715
24.7012,19.2631,74.115
24.8345,19.193,74.515
24.9675,19.1585,74.915
25.1013,19.1411,75.315
25.2345,19.3441,75.715
25.3679,18.9667,76.115
25.5012,18.6438,76.515
25.6346,18.7004,76.915
25.7679,18.8129,77.315
25.9017,18.8084,77.715
26.0346,18.6171,78.115
26.168,18.0692,78.515
26.3013,17.4731,78.915
26.4348,16.9584,79.315
26.5681,16.1824,79.715
26.7014,15.8242,80.115
26.8346,15.5127,80.515
26.9682,14.7566,80.915
27.1016,13.9108,81.315
27.2349,12.7793,81.715
27.3679,11.7076,82.115
27.5016,11.4555,82.515
27.6348,11.1211,82.915
27.7682,10.9653,83.315
27.9015,10.8031,83.715
28.0349,10.475,84.115
28.1681,10.3138,84.515
28.3018,10.2742,84.915
28.4347,10.1222,85.315
28.568,10.3022,85.715
28.7013,10.2175,86.115
28.8347,10.1594,86.515
28.9679,10.0383,86.915
29.1011,6.80884,87.315
29.2343,6.26793,87.715
29.3678,6.01676,88.115
29.5012,5.88116,88.515
29.6345,5.7997,88.915
29.7676,5.60446,89.315
29.9013,5.43956,89.715
30.0346,5.27466,90.115
30.1681,5.19586,90.515
30.3014,5.22535,90.915
30.4348,5.01495,91.315
30.5681,4.68617,91.715
30.7016,4.39155,92.115
30.8347,4.33943,92.515
30.968,4.05781,92.915
31.1013,4.07233,93.315
31.2347,4.10242,93.715
31.3681,4.03644,94.115
31.5014,3.88014,94.515
31.6347,3.53315,94.915
31.7683,3.54062,95.315
31.9017,3.37612,95.715
32.035,3.31501,96.115
32.168,3.19841,96.515
32.3016,3.37729,96.915
32.4349,2.90683,97.315
32.5683,2.74867,97.715
32.7015,2.70987,98.115
32.8348,2.6193,98.515
32.9681,2.36107,98.915
33.1015,2.33356,99.315
33.2346,2.43581,99.715
33.3679,1.99257,100.115
33.5013,1.89454,100.515
33.6345,1.79268,100.915
33.7678,1.76198,101.315
33.9012,1.61727,101.715
34.0344,1.53305,102.115
34.1678,1.39959,102.515
34.3012,1.52417,102.915
34.4346,1.40583,103.315
34.5677,1.44319,103.715
34.7012,1.3426,104.115
34.8346,1.17298,104.515
34.968,1.3608,104.915
35.1015,1.34242,105.315
35.2347,1.29545,105.715
35.3681,1.18063,106.115
35.5012,1.09274,106.515
35.6348,1.25472,106.915
35.7347,1.27984,107.215