File: Data/Selected_data/SSP_2025-03-18_D4_NO.csv
Crossheadmm,LoadN,Timesec
0.0336,11.7043,0.112
0.1003,16.1562,0.312
0.1672,20.042,0.512
0.2338,23.41,0.712
0.3006,26.713,0.912
0.367,30.4845,1.112
0.4338,35.1699,1.312
0.5006,39.9921,1.512
0.5672,45.4538,1.712
0.6336,51.3304,1.912
0.7004,56.1667,2.112
0.7673,60.9283,2.312
0.8341,66.5046,2.512
0.9002,72.9403,2.712
0.9673,76.5524,2.912
1.0341,75.9861,3.112
1.101,77.3858,3.312
1.1669,86.9016,3.512
1.2339,96.6767,3.712
1.3008,106.412,3.912
1.3674,116.609,4.112
1.4339,126.915,4.312
1.5006,137.638,4.512
1.5674,148.534,4.712
1.6342,158.764,4.912
1.7006,170.238,5.112
1.7673,181.551,5.312
1.8343,192.526,5.512
1.9007,203.66,5.712
1.9671,215.007,5.912
2.034,226.703,6.112
2.1009,238.398,6.312
2.1672,249.512,6.512
2.2339,260.676,6.712
2.3006,269.034,6.912
2.3678,276.392,7.112
2.4339,284.622,7.312
2.5006,293.293,7.512
2.5673,301.964,7.712
2.6339,310.37,7.912
2.7008,318.557,8.112
2.7672,325.023,8.312
2.8339,332.111,8.512
2.9008,339.419,8.712
2.9673,345.819,8.912
3.0338,351.405,9.112
3.1003,357.177,9.312
3.1673,363.183,9.512
3.2339,368.419,9.712
3.3001,374.062,9.912
3.367,379.505,10.112
3.4339,383.365,10.312
3.5006,387.721,10.512
3.5666,392.224,10.712
3.6334,397.088,10.912
3.7004,401.379,11.112
3.767,404.608,11.312
3.8336,308.986,11.512
3.9003,298.836,11.712
3.9671,260.103,11.912
4.0339,263.92,12.112
4.1002,273.765,12.312
4.167,283.376,12.512
4.2339,293.294,12.712
4.3004,257.871,12.912
4.3667,266.381,13.112
4.4336,275.995,13.312
4.5005,285.785,13.512
4.5668,280.774,13.712
4.6335,284.042,13.912
4.7003,290.514,14.112
4.7673,296.69,14.312
4.8335,301.535,14.512
4.9002,307.8,14.712
4.9669,266.025,14.912
5.0336,262.829,15.112
5.1005,268.168,15.312
5.1669,273.265,15.512
5.2336,276.477,15.712
5.3005,280.241,15.912
5.3671,284.095,16.112
5.4336,248.826,16.312
5.5003,245.702,16.512
5.5674,243.194,16.712
5.634,244.549,16.912
5.7004,246.551,17.112
5.7673,249.006,17.312
5.8342,248.093,17.512
5.9011,249.044,17.712
5.9671,252.356,17.912
6.034,122.039,18.112
6.1009,115.416,18.312
6.1676,118.367,18.512
6.2341,119.31,18.712
6.3006,122.069,18.912
6.3675,124.139,19.112
6.4343,124.2,19.312
6.5006,125.447,19.512
6.5674,76.2828,19.712
6.6343,75.9121,19.912
6.7009,76.3766,20.112
6.7673,77.5155,20.312
6.8341,79.3061,20.512
6.9009,81.1493,20.712
6.9673,82.7267,20.912
7.0341,83.8546,21.112
7.1007,85.5081,21.312
7.1678,86.7214,21.512
7.234,86.5238,21.712
7.3006,84.9033,21.912
7.3672,81.6959,22.112
7.4339,81.7453,22.312
7.5008,81.1633,22.512
7.5673,79.8678,22.712
7.6338,78.9028,22.912
7.7008,79.1759,23.112
7.7673,78.9593,23.312
7.8338,77.675,23.512
7.9004,77.3694,23.712
7.9675,75.7142,23.912
8.0339,74.8892,24.112
8.1004,73.4111,24.312
8.1672,73.4296,24.512
8.2341,73.5484,24.712
8.3008,73.4673,24.912
8.3669,73.6786,25.112
8.4337,73.9283,25.312
8.5007,74.7591,25.512
8.5673,74.8773,25.712
8.6338,75.668,25.912
8.7004,76.3549,26.112
8.7673,77.0001,26.312
8.8341,77.1775,26.512
8.9004,77.948,26.712
8.967,78.0497,26.912
9.034,78.4963,27.112
9.1005,79.2781,27.312
9.1669,80.1534,27.512
9.2337,81.3479,27.712
9.3005,82.0858,27.912
9.3669,82.4046,28.112
9.4337,81.8923,28.312
9.5004,82.0835,28.512
9.5675,82.6388,28.712
9.6338,83.1473,28.912
9.7005,84.1687,29.112
9.7671,85.0613,29.312
9.8339,85.8704,29.512
9.9007,86.6924,29.712
9.9672,88.0092,29.912
10.0339,88.3432,30.112
10.1008,88.5696,30.312
10.1674,88.712,30.512
10.234,88.8504,30.712
10.3005,88.1687,30.912
10.3677,82.9634,31.112
10.434,81.6641,31.312
10.5007,81.4054,31.512
10.5674,81.9514,31.712
10.6345,81.1734,31.912
10.7009,79.7928,32.112
10.7673,78.7136,32.312
10.834,77.856,32.512
10.9009,73.5407,32.712
10.9676,62.9492,32.912
11.0341,60.8591,33.112
11.1007,60.2483,33.312
11.1676,59.8715,33.512
11.2344,60.4842,33.712
11.3007,60.5885,33.912
11.3673,61.0338,34.112
11.4343,53.9494,34.312
11.5008,53.5864,34.512
11.5673,53.3404,34.712
11.634,52.9279,34.912
11.7009,52.4714,35.112
11.7672,52.3243,35.312
11.834,52.3758,35.512
11.9007,52.2229,35.712
11.9677,52.1347,35.912
12.034,51.7616,36.112
12.1006,50.441,36.312
12.1672,50.6412,36.512
12.234,50.7084,36.712
12.3008,50.0603,36.912
12.3672,49.853,37.112
12.4339,48.6978,37.312
12.5008,47.8354,37.512
12.5673,46.9255,37.712
12.634,46.9615,37.912
12.7004,46.4087,38.112
12.7677,44.7185,38.312
12.8338,44.3387,38.512
12.9005,44.4812,38.712
12.9672,44.6683,38.912
13.0343,44.5288,39.112
13.1005,44.2177,39.312
13.167,44.3612,39.512
13.2337,44.6781,39.712
13.3007,43.9712,39.912
13.3673,43.6779,40.112
13.4338,45.7461,40.312
13.5003,42.7372,40.512
13.5673,41.1723,40.712
13.634,41.0848,40.912
13.7004,40.4434,41.112
13.7671,40.1835,41.312