File: Data/Selected_data/SSP_2025-03-20_D14_OPER.csv
Crossheadmm,LoadN,Timesec
0.0337,4.62698,0.113
0.1674,4.99351,0.513
0.3008,5.49426,0.913
0.4339,6.08791,1.313
0.5674,6.73103,1.713
0.7008,7.4215,2.113
0.8342,8.10258,2.513
0.9676,8.85256,2.913
1.101,9.88394,3.313
1.2342,10.6832,3.713
1.3675,12.0276,4.113
1.5009,13.2196,4.513
1.6342,14.5986,4.913
1.7673,16.0944,5.313
1.9007,17.8204,5.713
2.034,19.8507,6.113
2.1674,21.763,6.513
2.3005,24.0023,6.913
2.4336,26.4762,7.313
2.5671,29.1208,7.713
2.7006,31.9035,8.113
2.8336,35.2741,8.513
2.9672,39.0265,8.913
3.1006,43.4152,9.313
3.234,47.9829,9.713
3.3674,52.956,10.113
3.5007,57.9307,10.513
3.6339,63.3309,10.913
3.7673,68.1277,11.313
3.9007,73.4601,11.713
4.0341,79.1446,12.113
4.1672,85.0198,12.513
4.3007,85.2965,12.913
4.4341,88.5338,13.313
4.5675,94.445,13.713
4.7007,98.5096,14.113
4.8339,98.7127,14.513
4.9674,97.2208,14.913
5.1009,97.3893,15.313
5.2339,99.1577,15.713
5.3675,100.305,16.113
5.5008,101.361,16.513
5.6342,100.551,16.913
5.7674,100.991,17.313
5.9008,103.789,17.713
6.0339,105.273,18.113
6.1674,108.874,18.513
6.3006,111.856,18.913
6.434,116.409,19.313
6.5671,119.388,19.713
6.7006,123.568,20.113
6.8339,126.647,20.513
6.9672,126.891,20.913
7.1003,128.355,21.313
7.2336,131.449,21.713
7.367,132.959,22.113
7.5004,135.054,22.513
7.6335,138.693,22.913
7.7672,146.305,23.313
7.9005,152.101,23.713
8.0339,157.829,24.113
8.167,159.014,24.513
8.3005,155.598,24.913
8.4337,159.23,25.313
8.5672,157.294,25.713
8.7005,160.209,26.113
8.8338,160.156,26.513
8.9671,154.111,26.913
9.1006,153.501,27.313
9.2341,154.097,27.713
9.3674,156.468,28.113
9.5007,162.409,28.513
9.6339,142.316,28.913
9.7675,104.037,29.313
9.9009,110.334,29.713
10.034,120.019,30.113
10.1676,127.849,30.513
10.3008,136.042,30.913
10.4342,132.765,31.313
10.5673,139.453,31.713
10.7007,144.484,32.113
10.8339,150.714,32.513
10.9672,155.558,32.913
11.1005,156.527,33.313
11.2337,160.916,33.713
11.367,161.238,34.113
11.5003,162.871,34.513
11.6337,161.023,34.913
11.767,166.781,35.313
11.9003,138.324,35.713
12.0335,138.348,36.113
12.167,138.531,36.513
12.3004,142.115,36.913
12.4336,146.45,37.313
12.5672,149.696,37.713
12.7004,151.709,38.113
12.8338,153.445,38.513
12.967,158.291,38.913
13.1005,162.175,39.313
13.2338,164.653,39.713
13.3673,167.062,40.113
13.5007,169.053,40.513
13.6339,171.332,40.913
13.7673,173.702,41.313
13.9006,173.687,41.713
14.0341,168.472,42.113
14.1674,166.288,42.513
14.3007,167.794,42.913
14.4339,168.072,43.313
14.5674,167.677,43.713
14.7007,160.577,44.113
14.8339,158.976,44.513
14.9675,160.282,44.913
15.1007,160.733,45.313
15.234,161.903,45.713
15.3672,162.911,46.113
15.5006,165.253,46.513
15.6339,168.649,46.913
15.7672,171.461,47.313
15.9006,165.343,47.713
16.0337,168.133,48.113
16.1671,136.309,48.513
16.3003,130.841,48.913
16.4338,119.591,49.313
16.5671,117.786,49.713
16.7005,113.617,50.113
16.8337,101.083,50.513
16.9672,99.8201,50.913
17.1005,86.2783,51.313
17.2337,84.8836,51.713
17.3673,85.9965,52.113
17.5007,81.6315,52.513
17.6341,56.2092,52.913
17.7673,51.8965,53.313
17.9008,45.0162,53.713
18.0341,40.9594,54.113
18.1674,33.3602,54.513
18.3009,31.8518,54.913
18.4341,30.8136,55.313
18.5675,29.9794,55.713
18.7007,28.28,56.113
18.8343,27.3368,56.513
18.9675,26.6858,56.913
19.1008,26.2145,57.313
19.234,25.6353,57.713
19.3675,24.344,58.113
19.5008,23.3546,58.513
19.634,22.451,58.913
19.7675,21.1843,59.313
19.9007,19.8171,59.713
20.0341,17.4059,60.113
20.1673,16.5427,60.513
20.3007,15.4838,60.913
20.434,14.6552,61.313
20.5673,14.0252,61.713
20.7007,13.5864,62.113
20.8338,12.6492,62.513
20.9672,11.9997,62.913
21.1003,11.6276,63.313
21.2339,11.4305,63.713
21.3671,11.1974,64.113
21.5006,10.9775,64.513
21.6339,10.6001,64.913
21.7674,9.78387,65.313
21.9007,9.52758,65.713
22.0339,9.36098,66.113
22.1675,8.88904,66.513
22.3007,8.88217,66.913
22.4342,8.3955,67.313
22.5673,8.19204,67.713
22.7008,8.03042,68.113
22.8341,7.7568,68.513
22.9675,7.28928,68.913
23.1009,6.59376,69.313
23.2342,6.61849,69.713
23.3676,6.15854,70.113
23.5006,5.75773,70.513
23.6341,5.69844,70.913
23.7674,5.92847,71.313
23.9008,5.88779,71.713
24.034,5.61155,72.113
24.1675,5.34464,72.513
24.3008,5.08494,72.913
24.4339,5.05719,73.313
24.5675,4.85799,73.713
24.7006,4.94469,74.113
24.8341,4.84992,74.513
24.9672,4.72786,74.913
25.1006,4.54418,75.313
25.2339,4.10457,75.713
25.3672,4.22268,76.113
25.5005,3.87526,76.513
25.6338,3.65014,76.913
25.7672,3.60548,77.313
25.9002,3.75208,77.713
26.0338,3.69394,78.113
26.1672,3.7512,78.513
26.3006,3.78407,78.913
26.4339,3.64423,79.313
26.5674,3.71848,79.713
26.7008,3.61288,80.113
26.8339,3.37721,80.513
26.9675,3.58235,80.913
27.1008,3.29149,81.313
27.2342,3.06784,81.713
27.3674,3.0018,82.113
27.5009,2.76613,82.513
27.6341,2.82164,82.913
27.7675,3.06255,83.313
27.9008,2.81043,83.713
28.0341,2.82548,84.113
28.1676,2.88867,84.513
28.3007,2.84567,84.913
28.4342,3.02215,85.313
28.5675,3.05546,85.713
28.7009,2.97334,86.113
28.8342,3.06489,86.513
28.9675,3.28928,86.913
29.1009,3.21222,87.313
29.2339,2.50934,87.713
29.3673,2.23068,88.113
29.5007,1.90757,88.513
29.634,1.90365,88.913
29.7671,1.73824,89.313
29.9005,1.6205,89.713
30.0339,1.44916,90.113
30.1672,1.49705,90.513
30.3005,1.5409,90.913
30.4338,1.58543,91.313
30.5673,1.33049,91.713
30.7004,0.980787,92.113
30.834,1.07146,92.513
30.9673,1.00263,92.913
31.1007,0.94132,93.313
31.2341,0.94225,93.713
31.3675,0.743657,94.113
31.501,0.746344,94.513
31.6341,0.772162,94.913
31.7675,0.692248,95.313
31.901,0.541894,95.713
32.0343,0.387526,96.113
32.1674,0.253588,96.513
32.301,0.268572,96.913
32.4342,0.184458,97.313
32.5677,0.0280732,97.713
32.7009,0.0702783,98.113
32.8342,0.160009,98.513
32.9675,0.126289,98.913
33.1006,0.123979,99.313
33.2341,0.0700019,99.713
33.3673,0.00866776,100.113
33.5007,0.13105,100.513
33.634,0.0228318,100.913
33.7673,0.454198,101.313
33.9008,0.225238,101.713
34.0338,0.123033,102.113
34.1672,0.0678532,102.513
34.3006,0.134224,102.913
34.4339,0.315449,103.313
34.5671,0.350722,103.713
34.7006,0.325326,104.113
34.8339,0.207647,104.513
34.9673,0.494773,104.913
35.1006,0.33546,105.313
35.2339,0.224353,105.713
35.3673,0.139494,106.113
35.5004,0.261042,106.513
35.6341,0.225978,106.913
35.7674,0.123959,107.313
35.9007,0.42263,107.713
36.0341,0.273677,108.113
36.1676,0.378572,108.513
36.3011,0.221469,108.913
36.4342,0.194483,109.313
36.5675,0.140173,109.713
36.701,0.347733,110.113
36.8344,0.306948,110.513
36.9675,0.238791,110.913
37.1011,0.280787,111.313
37.2343,0.178783,111.713
37.3677,0.276275,112.113
37.5008,0.485901,112.513
37.6342,0.246678,112.913
37.7675,0.0870075,113.313
37.9005,0.245298,113.713
38.034,0.403064,114.113
38.1672,0.270399,114.513
38.3006,0.333548,114.913
38.4339,0.226111,115.313
38.4671,0.272092,115.413