File: Data/Selected_data/SSP_2022-12-08_B11_NO.csv
Crossheadmm,LoadN,Timesec
0.0,0.22,0.000
0.02,0.01,0.200
0.04,0.18,0.400
0.05,0.04,0.600
0.07,0.2,0.800
0.09,0.07,1.000
0.1,0.2,1.200
0.12,0.06,1.400
0.14,0.23,1.600
0.15,0.16,1.800
0.17,0.06,2.000
0.19,0.16,2.200
0.2,0.34,2.400
0.22,0.26,2.600
0.24,0.1,2.800
0.25,0.4,3.000
0.27,0.51,3.200
0.29,0.94,3.400
0.3,0.91,3.600
0.32,1.55,3.800
0.34,2.1,4.000
0.35,2.63,4.200
0.37,3.51,4.400
0.39,4.19,4.600
0.4,4.55,4.800
0.42,4.98,5.000
0.44,5.81,5.200
0.45,6.9,5.400
0.47,7.9,5.600
0.49,8.9,5.800
0.5,9.97,6.000
0.52,10.99,6.200
0.54,12.14,6.400
0.55,13.43,6.600
0.57,14.68,6.800
0.59,16.34,7.000
0.6,18.12,7.200
0.62,19.73,7.400
0.64,21.66,7.600
0.65,23.76,7.800
0.67,25.7,8.000
0.69,28.07,8.200
0.7,30.2,8.400
0.72,32.74,8.600
0.74,35.3,8.800
0.75,37.63,9.000
0.77,40.18,9.200
0.79,42.94,9.400
0.8,45.63,9.600
0.82,48.31,9.800
0.84,51.0,10.000
0.85,53.9,10.200
0.87,56.84,10.400
0.89,59.83,10.600
0.9,62.85,10.800
0.92,65.89,11.000
0.94,69.1,11.200
0.95,72.23,11.400
0.97,75.51,11.600
0.99,78.43,11.800
1.0,81.69,12.000
1.02,84.83,12.200
1.04,88.01,12.400
1.05,91.24,12.600
1.07,94.42,12.800
1.09,97.73,13.000
1.1,101.11,13.200
1.12,104.35,13.400
1.14,107.73,13.600
1.15,111.14,13.800
1.17,114.31,14.000
1.19,117.65,14.200
1.2,121.3,14.400
1.22,124.81,14.600
1.24,127.93,14.800
1.25,131.52,15.000
1.27,135.05,15.200
1.29,138.31,15.400
1.3,142.07,15.600
1.32,145.17,15.800
1.34,148.74,16.000
1.35,152.65,16.200
1.37,156.32,16.400
1.39,159.74,16.600
1.4,163.31,16.800
1.42,166.7,17.000
1.44,170.34,17.200
1.45,174.13,17.400
1.47,177.34,17.600
1.49,181.03,17.800
1.5,184.6,18.000
1.52,188.51,18.200
1.54,191.64,18.400
1.55,195.24,18.600
1.57,198.54,18.800
1.59,201.87,19.000
1.6,205.28,19.200
1.62,208.7,19.400
1.64,212.2,19.600
1.65,216.0,19.800
1.67,219.39,20.000
1.69,222.64,20.200
1.7,226.02,20.400
1.72,229.44,20.600
1.74,233.04,20.800
1.75,236.06,21.000
1.77,239.62,21.200
1.79,242.86,21.400
1.8,246.28,21.600
1.82,249.55,21.800
1.84,253.01,22.000
1.85,256.38,22.200
1.87,259.53,22.400
1.89,262.85,22.600
1.9,266.19,22.800
1.92,269.45,23.000
1.94,272.91,23.200
1.95,275.97,23.400
1.97,279.29,23.600
1.99,282.51,23.800
2.0,285.57,24.000
2.02,288.39,24.200
2.04,291.64,24.400
2.05,294.85,24.600
2.07,297.92,24.800
2.09,301.06,25.000
2.1,303.98,25.200
2.12,306.86,25.400
2.14,309.77,25.600
2.15,312.78,25.800
2.17,315.81,26.000
2.19,318.8,26.200
2.2,321.78,26.400
2.22,324.48,26.600
2.24,327.69,26.800
2.25,330.41,27.000
2.27,333.54,27.200
2.29,336.3,27.400
2.3,339.42,27.600
2.32,342.05,27.800
2.34,345.06,28.000
2.35,347.97,28.200
2.37,350.88,28.400
2.39,353.69,28.600
2.4,356.41,28.800
2.42,359.3,29.000
2.44,362.03,29.200
2.45,364.3,29.400
2.47,366.99,29.600
2.49,369.05,29.800
2.5,371.49,30.000
2.52,374.17,30.200
2.54,376.77,30.400
2.55,379.34,30.600
2.57,381.82,30.800
2.59,384.72,31.000
2.6,387.32,31.200
2.62,390.22,31.400
2.64,391.86,31.600
2.65,394.06,31.800
2.67,394.84,32.000
2.69,377.38,32.200
2.7,341.09,32.400
2.72,287.26,32.600
2.74,238.81,32.800
2.75,72.57,33.000