File: Data/Selected_data/SSP_2022-12-17_B9_OPER.csv
Crossheadmm,LoadN,Timesec
0.0,2.0,0.000
0.02,2.0,0.200
0.04,2.0,0.400
0.07,2.0,0.600
0.1,2.0,0.800
0.14,2.0,1.000
0.19,2.0,1.200
0.25,2.0,1.400
0.31,2.0,1.600
0.37,2.0,1.800
0.44,2.0,2.000
0.5,2.0,2.200
0.57,2.0,2.400
0.64,2.0,2.600
0.7,2.0,2.800
0.77,2.0,3.000
0.84,2.0,3.200
0.9,2.0,3.400
0.97,2.0,3.600
1.04,2.0,3.800
1.1,2.0,4.000
1.17,2.0,4.200
1.24,2.0,4.400
1.3,2.0,4.600
1.37,3.0,4.800
1.44,3.0,5.000
1.5,3.0,5.200
1.57,3.0,5.400
1.64,4.0,5.600
1.7,4.0,5.800
1.77,4.0,6.000
1.84,4.0,6.200
1.9,4.0,6.400
1.97,4.0,6.600
2.04,4.0,6.800
2.1,4.0,7.000
2.17,4.0,7.200
2.24,5.0,7.400
2.3,5.0,7.600
2.37,5.0,7.800
2.44,5.0,8.000
2.5,6.0,8.200
2.57,6.0,8.400
2.64,7.0,8.600
2.7,7.0,8.800
2.77,7.0,9.000
2.84,7.0,9.200
2.9,7.0,9.400
2.97,8.0,9.600
3.04,8.0,9.800
3.1,9.0,10.000
3.17,9.0,10.200
3.24,9.0,10.400
3.3,9.0,10.600
3.37,9.0,10.800
3.44,10.0,11.000
3.5,10.0,11.200
3.57,10.0,11.400
3.64,10.0,11.600
3.7,11.0,11.800
3.77,11.0,12.000
3.84,12.0,12.200
3.9,12.0,12.400
3.97,12.0,12.600
4.04,13.0,12.800
4.1,13.0,13.000
4.17,14.0,13.200
4.23,14.0,13.400
4.3,14.0,13.600
4.37,14.0,13.800
4.44,15.0,14.000
4.5,15.0,14.200
4.57,15.0,14.400
4.63,16.0,14.600
4.7,16.0,14.800
4.77,17.0,15.000
4.83,18.0,15.200
4.9,18.0,15.400
4.97,18.0,15.600
5.04,19.0,15.800
5.1,19.0,16.000
5.17,20.0,16.200
5.24,20.0,16.400
5.3,20.0,16.600
5.37,21.0,16.800
5.44,21.0,17.000
5.5,21.0,17.200
5.57,22.0,17.400
5.64,22.0,17.600
5.7,23.0,17.800
5.77,23.0,18.000
5.83,23.0,18.200
5.9,23.0,18.400
5.97,23.0,18.600
6.03,24.0,18.800
6.1,24.0,19.000
6.17,24.0,19.200
6.23,25.0,19.400
6.3,25.0,19.600
6.37,26.0,19.800
6.44,26.0,20.000
6.5,27.0,20.200
6.57,27.0,20.400
6.63,28.0,20.600
6.7,29.0,20.800
6.77,29.0,21.000
6.83,30.0,21.200
6.9,31.0,21.400
6.97,31.0,21.600
7.04,32.0,21.800
7.1,32.0,22.000
7.17,32.0,22.200
7.23,33.0,22.400
7.3,34.0,22.600
7.37,34.0,22.800
7.43,35.0,23.000
7.5,36.0,23.200
7.57,36.0,23.400
7.63,37.0,23.600
7.7,38.0,23.800
7.77,38.0,24.000
7.83,39.0,24.200
7.9,40.0,24.400
7.97,40.0,24.600
8.03,41.0,24.800
8.1,41.0,25.000
8.17,42.0,25.200
8.23,43.0,25.400
8.3,43.0,25.600
8.37,45.0,25.800
8.43,45.0,26.000
8.5,46.0,26.200
8.56,47.0,26.400
8.63,47.0,26.600
8.7,49.0,26.800
8.77,49.0,27.000
8.83,49.0,27.200
8.9,50.0,27.400
8.96,51.0,27.600
9.03,51.0,27.800
9.1,52.0,28.000
9.16,52.0,28.200
9.23,52.0,28.400
9.3,52.0,28.600
9.37,53.0,28.800
9.43,54.0,29.000
9.5,54.0,29.200
9.56,54.0,29.400
9.63,54.0,29.600
9.7,54.0,29.800
9.76,55.0,30.000
9.83,55.0,30.200
9.9,55.0,30.400
9.96,55.0,30.600
10.03,56.0,30.800
10.1,56.0,31.000
10.16,55.0,31.200
10.23,55.0,31.400
10.3,56.0,31.600
10.36,56.0,31.800
10.43,56.0,32.000
10.5,56.0,32.200
10.56,58.0,32.400
10.63,58.0,32.600
10.7,59.0,32.800
10.76,60.0,33.000
10.83,60.0,33.200
10.9,62.0,33.400
10.96,63.0,33.600
11.03,64.0,33.800
11.09,64.0,34.000
11.16,65.0,34.200
11.23,66.0,34.400
11.29,67.0,34.600
11.36,68.0,34.800
11.43,69.0,35.000
11.5,70.0,35.200
11.56,71.0,35.400
11.63,72.0,35.600
11.69,73.0,35.800
11.76,75.0,36.000
11.83,75.0,36.200
11.9,77.0,36.400
11.96,78.0,36.600
12.03,79.0,36.800
12.09,80.0,37.000
12.16,81.0,37.200
12.23,83.0,37.400
12.29,83.0,37.600
12.36,85.0,37.800
12.43,86.0,38.000
12.49,88.0,38.200
12.56,90.0,38.400
12.63,91.0,38.600
12.69,91.0,38.800
12.76,91.0,39.000
12.83,92.0,39.200
12.89,93.0,39.400
12.96,93.0,39.600
13.03,94.0,39.800
13.09,94.0,40.000
13.16,95.0,40.200
13.23,96.0,40.400
13.29,97.0,40.600
13.36,98.0,40.800
13.42,101.0,41.000
13.49,102.0,41.200
13.56,104.0,41.400
13.63,106.0,41.600
13.69,108.0,41.800
13.76,110.0,42.000
13.82,112.0,42.200
13.89,114.0,42.400
13.96,116.0,42.600
14.03,119.0,42.800
14.09,120.0,43.000
14.16,123.0,43.200
14.22,124.0,43.400
14.29,126.0,43.600
14.36,127.0,43.800
14.42,128.0,44.000
14.49,129.0,44.200
14.56,129.0,44.400
14.62,129.0,44.600
14.69,128.0,44.800
14.76,127.0,45.000
14.82,127.0,45.200
14.89,128.0,45.400
14.96,128.0,45.600
15.03,130.0,45.800
15.09,131.0,46.000
15.16,132.0,46.200
15.22,133.0,46.400
15.29,134.0,46.600
15.36,134.0,46.800
15.42,134.0,47.000
15.49,134.0,47.200
15.56,130.0,47.400
15.62,120.0,47.600
15.69,108.0,47.800
15.76,100.0,48.000
15.82,100.0,48.200
15.89,101.0,48.400
15.96,102.0,48.600
16.03,102.0,48.800
16.09,101.0,49.000
16.16,100.0,49.200
16.22,100.0,49.400
16.29,101.0,49.600
16.36,101.0,49.800
16.42,101.0,50.000
16.49,101.0,50.200
16.56,100.0,50.400
16.62,98.0,50.600
16.69,97.0,50.800
16.76,95.0,51.000
16.82,94.0,51.200
16.89,93.0,51.400
16.96,91.0,51.600
17.02,91.0,51.800
17.09,90.0,52.000
17.16,90.0,52.200
17.22,89.0,52.400
17.29,89.0,52.600
17.36,88.0,52.800
17.42,88.0,53.000
17.49,88.0,53.200
17.56,88.0,53.400
17.62,88.0,53.600
17.69,87.0,53.800
17.76,87.0,54.000
17.82,87.0,54.200
17.89,87.0,54.400
17.96,86.0,54.600
18.02,86.0,54.800
18.09,86.0,55.000
18.16,86.0,55.200
18.22,87.0,55.400
18.29,88.0,55.600
18.36,89.0,55.800
18.42,89.0,56.000
18.49,83.0,56.200
18.56,69.0,56.400
18.62,51.0,56.600
18.66,46.0,56.700