File: Data/Selected_data/SSP_2025-03-17_D2_NO.csv
Crossheadmm,LoadN,Timesec
0.0337,72.2243,0.112
0.1005,105.638,0.312
0.1676,114.23,0.512
0.2342,112.656,0.712
0.3007,110.686,0.912
0.3676,110.969,1.112
0.4343,126.134,1.312
0.5007,162.85,1.512
0.5673,178.757,1.712
0.6339,184.968,1.912
0.7006,187.626,2.112
0.7672,188.341,2.312
0.8339,189.019,2.512
0.9006,190.172,2.712
0.9673,191.247,2.912
1.0339,192.055,3.112
1.1006,193.292,3.312
1.1671,194.331,3.512
1.2338,195.854,3.712
1.3005,197.201,3.912
1.3672,198.391,4.112
1.4338,199.491,4.312
1.5005,200.697,4.512
1.5673,201.921,4.712
1.6338,203.123,4.912
1.7002,204.231,5.112
1.7674,205.925,5.312
1.8336,205.951,5.512
1.9004,207.194,5.712
1.9671,208.427,5.912
2.0339,209.934,6.112
2.1005,210.589,6.312
2.167,211.684,6.512
2.2337,213.063,6.712
2.3007,214.697,6.912
2.3676,216.133,7.112
2.4335,217.65,7.312
2.5003,219.323,7.512
2.5672,221.329,7.712
2.6338,222.905,7.912
2.7004,224.408,8.112
2.7672,225.689,8.312
2.8339,226.922,8.512
2.9003,228.369,8.712
2.9671,230.46,8.912
3.0337,232.129,9.112
3.1004,234.274,9.312
3.1671,236.656,9.512
3.2338,237.92,9.712
3.3006,239.901,9.912
3.3673,241.359,10.112
3.4339,242.658,10.312
3.5006,244.5,10.512
3.5672,246.667,10.712
3.6339,248.615,10.912
3.7006,251.072,11.112
3.7673,253.454,11.312
3.834,255.602,11.512
3.9007,258.431,11.712
3.9675,259.503,11.912
4.034,259.21,12.112
4.1005,259.149,12.312
4.1676,259.867,12.512
4.2339,259.247,12.712
4.3006,254.741,12.912
4.3674,259.201,13.112
4.4342,262.164,13.312
4.5007,265.399,13.512
4.5673,268.108,13.712
4.6341,270.355,13.912
4.7009,273.012,14.112
4.7678,273.443,14.312
4.8339,273.661,14.512
4.9006,275.446,14.712
4.9675,276.395,14.912
5.0341,237.322,15.112
5.1007,228.76,15.312
5.1677,200.776,15.512
5.2342,204.282,15.712
5.3005,207.882,15.912
5.3673,181.215,16.112
5.434,184.604,16.312
5.5004,189.004,16.512
5.5671,187.321,16.712
5.634,101.198,16.912
5.7007,87.4535,17.112
5.7673,76.6396,17.312
5.8339,73.3034,17.512
5.9006,43.1217,17.712
5.9671,42.0155,17.912
6.0339,41.8753,18.112
6.1007,41.1495,18.312
6.1673,41.3021,18.512
6.234,41.4529,18.712
6.3006,41.2529,18.912
6.3674,41.1197,19.112
6.4339,41.1825,19.312
6.5005,41.1392,19.512
6.5675,40.8248,19.712
6.6338,40.6882,19.912
6.7006,40.7838,20.112
6.7673,40.7095,20.312
6.8341,40.6627,20.512
6.9005,40.63,20.712
6.9672,40.4948,20.912
7.0339,40.4403,21.112
7.1008,40.5913,21.312
7.1674,40.6163,21.512
7.2338,40.7955,21.712
7.3004,40.7687,21.912
7.3673,40.4065,22.112
7.4339,40.5245,22.312
7.5006,40.7265,22.512
7.5674,40.9264,22.712
7.6339,40.8611,22.912
7.7003,40.9871,23.112
7.7673,41.1882,23.312
7.8339,41.5344,23.512
7.9004,41.9946,23.712
7.9671,42.5144,23.912
8.034,42.7297,24.112
8.1008,43.2546,24.312
8.1675,43.5469,24.512
8.2341,43.8297,24.712
8.3008,44.0099,24.912
8.3673,43.8811,25.112
8.4341,43.843,25.312
8.5008,44.2789,25.512
8.5675,44.3205,25.712
8.6342,44.4731,25.912
8.7008,44.4403,26.112
8.7676,44.6064,26.312
8.8341,44.9117,26.512
8.9008,45.0184,26.712
8.9677,45.2107,26.912
9.0341,45.3616,27.112
9.1009,45.5138,27.312
9.1677,45.6482,27.512
9.2344,45.8387,27.712
9.3008,46.2848,27.912
9.3675,46.582,28.112
9.4343,46.639,28.312
9.5011,46.8025,28.512
9.5676,47.1825,28.712
9.634,47.3965,28.912
9.7008,47.3067,29.112
9.7676,47.3791,29.312
9.8342,47.5528,29.512
9.9009,47.7145,29.712
9.9678,47.6567,29.912
10.0342,46.698,30.112
10.1005,47.0045,30.312
10.1676,46.5933,30.512
10.2342,46.5848,30.712
10.3005,46.3762,30.912
10.3673,46.5767,31.112
10.4341,46.3633,31.312
10.5009,46.2334,31.512
10.5674,46.2275,31.712
10.6341,45.7647,31.912
10.7007,46.2257,32.112
10.7673,46.426,32.312
10.834,46.4268,32.512
10.9007,46.6141,32.712
10.9674,46.6287,32.912
11.0341,47.1246,33.112
11.1006,47.6017,33.312
11.1674,47.7606,33.512
11.2338,48.2842,33.712
11.3005,47.6855,33.912
11.3674,47.7309,34.112
11.4338,46.9829,34.312
11.5006,47.2408,34.512
11.5673,47.3659,34.712
11.634,47.4505,34.912
11.7005,46.5101,35.112
11.7672,46.8028,35.312
11.8339,47.4756,35.512
11.9008,47.2777,35.712
11.9672,47.2888,35.912
12.0338,47.4663,36.112
12.1005,47.415,36.312
12.1672,47.7558,36.512
12.2339,44.2202,36.712
12.3007,44.4595,36.912
12.3676,43.3394,37.112
12.4339,31.8375,37.312
12.5004,31.662,37.512
12.5674,31.7757,37.712
12.6341,31.8696,37.912
12.7005,31.8266,38.112
12.7673,31.8417,38.312
12.8341,32.0732,38.512
12.9009,31.9593,38.712