File: Selected_data/SSP_2025-03-17_D1_NO.csv
Crossheadmm,LoadN,Timesec
0.0344,0.198805,0.115
0.1009,0.34186,0.315
0.1681,0.53224,0.515
0.2348,0.708565,0.715
0.3013,0.723475,0.915
0.3676,0.737814,1.115
0.4347,0.93028,1.315
0.5017,0.985567,1.515
0.5681,1.03805,1.715
0.6344,1.27815,1.915
0.7014,1.45134,2.115
0.768,1.48789,2.315
0.8347,1.69687,2.515
0.9012,1.82042,2.715
0.9679,2.10993,2.915
1.0348,2.30982,3.115
1.1014,2.66162,3.315
1.1679,2.90189,3.515
1.2346,3.40356,3.715
1.3012,3.86512,3.915
1.3682,4.39495,4.115
1.4345,4.85484,4.315
1.5012,5.3603,4.515
1.568,6.27998,4.715
1.6348,6.87396,4.915
1.701,7.48583,5.115
1.7679,8.01402,5.315
1.8347,8.75422,5.515
1.9012,9.66134,5.715
1.9678,10.8153,5.915
2.0345,11.537,6.115
2.1011,12.2124,6.315
2.168,13.2848,6.515
2.2344,14.1765,6.715
2.3013,15.2427,6.915
2.3685,16.5558,7.115
2.4344,17.8771,7.315
2.5008,19.1354,7.515
2.568,20.7441,7.715
2.6348,22.5318,7.915
2.7012,24.4751,8.115
2.7676,26.8044,8.315
2.8347,29.2028,8.515
2.9018,31.5162,8.715
2.9681,33.7873,8.915
3.0345,36.5376,9.115
3.1014,39.2916,9.315
3.168,42.3154,9.515
3.2348,45.3472,9.715
3.3013,48.2605,9.915
3.368,51.1161,10.115
3.4349,54.507,10.315
3.5015,58.3089,10.515
3.568,61.4527,10.715
3.6347,65.1192,10.915
3.7014,68.9842,11.115
3.7683,72.7081,11.315
3.8346,76.9049,11.515
3.9013,81.1273,11.715
3.9683,85.6003,11.915
4.035,89.8958,12.115
4.1012,94.5467,12.315
4.168,99.5481,12.515
4.2349,104.578,12.715
4.3014,109.744,12.915
4.3679,114.633,13.115
4.4347,119.778,13.315
4.5014,124.794,13.515
4.5682,130.083,13.715
4.6345,135.093,13.915
4.7013,140.434,14.115
4.7685,145.798,14.315
4.8345,150.623,14.515
4.9009,156.099,14.715
4.968,161.599,14.915
5.0348,167.087,15.115
5.1012,172.456,15.315
5.1675,177.157,15.515
5.2347,182.42,15.715
5.3016,187.503,15.915
5.3679,192.861,16.115
5.4343,198.214,16.315
5.5012,203.648,16.515
5.5678,209.001,16.715
5.6347,214.289,16.915
5.701,218.41,17.115
5.7678,223.411,17.315
5.8346,228.503,17.515
5.9011,233.65,17.715
5.9676,238.456,17.915
6.0343,243.441,18.115
6.101,247.724,18.315
6.1679,250.794,18.515
6.2341,255.093,18.715
6.3008,259.433,18.915
6.3677,263.636,19.115
6.4345,267.759,19.315
6.5007,271.686,19.515
6.5676,275.738,19.715
6.6344,278.347,19.915
6.701,281.536,20.115
6.7675,284.931,20.315
6.8343,287.735,20.515
6.901,279.882,20.715
6.9679,230.916,20.915
7.0343,215.685,21.115
7.1012,194.191,21.315
7.1683,155.823,21.515
7.2345,44.0103,21.715
7.3009,41.8956,21.915
7.368,42.279,22.115
7.4348,42.8437,22.315
7.5011,43.1225,22.515
7.5677,43.526,22.715
7.6347,40.6586,22.915
7.7017,39.7578,23.115
7.768,39.6461,23.315
7.8344,39.9444,23.515
7.9013,40.3623,23.715
7.9679,39.8369,23.915
8.0348,36.7974,24.115
8.1012,36.65,24.315
8.168,36.9109,24.515
8.2349,37.1169,24.715
8.3015,37.2364,24.915
8.368,37.2346,25.115
8.4348,37.5148,25.315
8.5016,37.8246,25.515
8.5684,37.9783,25.715
8.6347,38.2239,25.915
8.7015,38.4084,26.115
8.7683,38.842,26.315
8.8351,38.9917,26.515
8.9013,39.2894,26.715
8.9682,39.5433,26.915
9.035,39.5748,27.115
9.1016,39.5436,27.315
9.1681,39.4799,27.515
9.2349,39.6218,27.715
9.3016,39.4154,27.915
9.3684,38.4436,28.115
9.4347,37.3438,28.315
9.5016,37.2531,28.515
9.5687,37.2406,28.715
9.6347,36.9798,28.915
9.7011,36.8684,29.115
9.7682,36.6028,29.315
9.835,29.6907,29.515
9.9012,27.3763,29.715
9.9679,27.0607,29.915
10.0347,26.7159,30.115
10.1017,26.6427,30.315
10.1679,26.6971,30.515
10.2344,26.7252,30.715
10.3012,26.681,30.915
10.3678,26.8177,31.115
10.4347,26.7959,31.315
10.501,26.9647,31.515
10.5677,26.9633,31.715
10.6346,26.919,31.915
10.7012,27.0476,32.115
10.7676,27.1318,32.315
10.8344,27.1764,32.515
10.9012,27.1772,32.715
10.9679,27.1355,32.915
11.0344,27.1763,33.115
11.1012,27.2536,33.315
11.1679,27.3549,33.515
11.2347,27.5073,33.715
11.301,27.5709,33.915
11.3679,27.8201,34.115
11.4347,27.7988,34.315
11.5013,27.5905,34.515
11.5678,27.6788,34.715
11.6346,27.6121,34.915
11.7013,27.779,35.115
11.7681,27.8078,35.315
11.8344,27.9798,35.515
11.9014,28.1623,35.715
11.9683,28.1578,35.915
12.0345,28.2137,36.115
12.101,28.3468,36.315
12.168,28.5253,36.515
12.2349,28.4727,36.715
12.3012,28.7729,36.915
12.368,28.7414,37.115
12.4347,28.9418,37.315
12.5018,29.1728,37.515
12.5681,29.2629,37.715
12.6346,29.3836,37.915
12.7014,29.4636,38.115
12.768,29.5362,38.315
12.8349,29.6718,38.515
12.9014,29.7073,38.715
12.968,29.875,38.915
13.035,30.0172,39.115
13.1016,30.0897,39.315
13.1681,30.193,39.515
13.2348,30.3009,39.715
13.3017,30.4574,39.915
13.3684,30.4835,40.115
13.4349,30.5667,40.315
13.5015,30.6733,40.515
13.5683,30.5544,40.715
13.6351,30.6126,40.915
13.7014,30.7312,41.115
13.7681,30.8749,41.315
13.835,30.7622,41.515
13.9016,30.6628,41.715
13.9681,30.5988,41.915
14.0347,30.6319,42.115
14.1016,30.5196,42.315
14.1683,30.458,42.515
14.2346,30.1113,42.715
14.3015,30.1398,42.915
14.3685,30.1045,43.115
14.4346,29.7948,43.315
14.5011,29.4925,43.515
14.568,29.2739,43.715
14.6348,28.8404,43.915
14.701,28.4704,44.115
14.7678,28.1842,44.315
14.8346,27.9455,44.515
14.9016,27.8989,44.715
14.9678,27.5409,44.915