File: Selected_data/SSP_2022-12-08_B10_OPER.csv
Crossheadmm,LoadN,Timesec
0.0,0.19,0.000
0.02,0.13,0.200
0.04,0.24,0.400
0.05,0.26,0.600
0.07,0.21,0.800
0.09,0.22,1.000
0.1,0.2,1.200
0.12,0.37,1.400
0.14,0.41,1.600
0.15,0.39,1.800
0.17,0.3,2.000
0.19,0.45,2.200
0.2,0.51,2.400
0.22,0.57,2.600
0.24,0.7,2.800
0.25,0.77,3.000
0.27,0.88,3.200
0.29,0.8,3.400
0.3,0.88,3.600
0.32,0.9,3.800
0.34,1.09,4.000
0.35,1.09,4.200
0.37,1.19,4.400
0.39,1.27,4.600
0.4,1.45,4.800
0.42,1.4,5.000
0.44,1.53,5.200
0.45,1.66,5.400
0.47,1.74,5.600
0.49,1.88,5.800
0.5,1.96,6.000
0.52,2.01,6.200
0.54,2.25,6.400
0.55,2.49,6.600
0.57,2.48,6.800
0.59,2.52,7.000
0.6,2.67,7.200
0.62,3.03,7.400
0.64,3.02,7.600
0.65,3.16,7.800
0.67,3.38,8.000
0.69,3.55,8.200
0.7,3.72,8.400
0.72,3.75,8.600
0.74,4.04,8.800
0.75,4.07,9.000
0.77,4.25,9.200
0.79,4.59,9.400
0.8,4.65,9.600
0.82,4.9,9.800
0.84,5.0,10.000
0.85,5.25,10.200
0.87,5.25,10.400
0.89,5.49,10.600
0.9,5.61,10.800
0.92,5.73,11.000
0.94,5.89,11.200
0.95,6.19,11.400
0.97,6.39,11.600
0.99,6.43,11.800
1.0,6.76,12.000
1.02,6.83,12.200
1.04,7.11,12.400
1.05,7.38,12.600
1.07,7.7,12.800
1.09,8.0,13.000
1.1,8.11,13.200
1.12,8.35,13.400
1.14,8.7,13.600
1.15,8.89,13.800
1.17,9.15,14.000
1.19,9.61,14.200
1.2,9.92,14.400
1.22,10.19,14.600
1.24,10.4,14.800
1.25,10.82,15.000
1.27,11.06,15.200
1.29,11.59,15.400
1.3,11.81,15.600
1.32,12.11,15.800
1.34,12.44,16.000
1.35,12.85,16.200
1.37,13.13,16.400
1.39,13.23,16.600
1.4,13.64,16.800
1.42,13.95,17.000
1.44,14.2,17.200
1.45,14.48,17.400
1.47,14.82,17.600
1.49,15.17,17.800
1.5,15.58,18.000
1.52,15.81,18.200
1.54,16.02,18.400
1.55,16.45,18.600
1.57,17.0,18.800
1.59,17.17,19.000
1.6,17.51,19.200
1.62,17.83,19.400
1.64,18.27,19.600
1.65,18.69,19.800
1.67,19.08,20.000
1.69,19.5,20.200
1.7,19.79,20.400
1.72,20.33,20.600
1.74,20.7,20.800
1.75,21.39,21.000
1.77,21.8,21.200
1.79,22.42,21.400
1.8,22.96,21.600
1.82,23.53,21.800
1.84,24.09,22.000
1.85,24.5,22.200
1.87,25.24,22.400
1.89,25.86,22.600
1.9,26.36,22.800
1.92,26.75,23.000
1.94,27.41,23.200
1.95,28.01,23.400
1.97,28.54,23.600
1.99,29.07,23.800
2.0,29.55,24.000
2.02,30.19,24.200
2.04,30.75,24.400
2.05,31.41,24.600
2.07,31.94,24.800
2.09,32.51,25.000
2.1,33.18,25.200
2.12,33.73,25.400
2.14,34.25,25.600
2.15,35.08,25.800
2.17,35.57,26.000
2.19,36.28,26.200
2.2,37.06,26.400
2.22,37.76,26.600
2.24,38.4,26.800
2.25,39.13,27.000
2.27,39.8,27.200
2.29,40.5,27.400
2.3,41.09,27.600
2.32,41.86,27.800
2.34,42.57,28.000
2.35,43.21,28.200
2.37,44.05,28.400
2.39,44.75,28.600
2.4,45.39,28.800
2.42,46.19,29.000
2.44,46.84,29.200
2.45,47.63,29.400
2.47,48.34,29.600
2.49,49.04,29.800
2.5,49.65,30.000
2.52,49.97,30.200
2.54,50.35,30.400
2.55,51.02,30.600
2.57,51.65,30.800
2.59,52.29,31.000
2.6,52.95,31.200
2.62,53.65,31.400
2.64,54.23,31.600
2.65,55.0,31.800
2.67,55.63,32.000
2.69,56.11,32.200
2.7,56.82,32.400
2.72,57.11,32.600
2.74,57.7,32.800
2.75,58.48,33.000
2.77,59.05,33.200
2.79,59.71,33.400
2.8,60.13,33.600
2.82,60.7,33.800
2.84,61.4,34.000
2.85,61.72,34.200
2.87,62.02,34.400
2.89,62.43,34.600
2.9,62.38,34.800
2.92,62.82,35.000
2.94,63.14,35.200
2.95,63.78,35.400
2.97,64.1,35.600
2.99,64.66,35.800
3.0,64.73,36.000
3.02,65.04,36.200
3.04,65.42,36.400
3.05,65.83,36.600
3.07,66.09,36.800
3.09,66.58,37.000
3.1,66.81,37.200
3.12,66.99,37.400
3.14,67.26,37.600
3.15,67.76,37.800
3.17,68.08,38.000
3.19,68.55,38.200
3.2,68.47,38.400
3.22,69.13,38.600
3.24,69.3,38.800
3.25,69.64,39.000
3.27,70.15,39.200
3.29,70.55,39.400
3.3,70.74,39.600
3.32,70.69,39.800
3.34,71.05,40.000
3.35,70.9,40.200
3.37,70.94,40.400
3.39,70.92,40.600
3.4,71.08,40.800
3.42,71.45,41.000
3.44,71.75,41.200
3.45,72.17,41.400
3.47,72.29,41.600
3.49,72.13,41.800
3.5,72.03,42.000
3.52,71.69,42.200
3.54,71.7,42.400
3.55,71.63,42.600
3.57,68.64,42.800
3.59,67.11,43.000
3.6,66.23,43.200
3.62,65.82,43.400
3.64,65.44,43.600
3.65,65.15,43.800
3.67,64.44,44.000
3.69,63.84,44.200
3.7,63.42,44.400
3.72,63.17,44.600
3.74,62.44,44.800
3.75,62.26,45.000
3.77,61.66,45.200
3.79,58.58,45.400
3.8,54.14,45.600
3.82,49.96,45.800
3.84,48.65,46.000
3.85,48.17,46.200
3.87,46.93,46.400
3.89,40.79,46.600
3.9,40.15,46.800
3.92,39.91,47.000
3.94,39.79,47.200
3.96,39.79,47.400
3.98,39.76,47.600
3.99,39.6,47.800
4.01,39.39,48.000
4.03,38.98,48.200
4.04,38.81,48.400
4.06,38.73,48.600
4.08,38.67,48.800
4.09,35.74,49.000
4.11,34.31,49.200
4.13,32.73,49.400
4.14,32.37,49.600
4.16,32.17,49.800
4.18,32.02,50.000
4.19,32.07,50.200
4.21,31.92,50.400
4.23,31.72,50.600
4.24,31.58,50.800
4.26,31.34,51.000
4.28,31.11,51.200
4.29,31.14,51.400
4.31,31.2,51.600
4.33,31.2,51.800
4.34,30.98,52.000
4.36,30.78,52.200
4.38,30.55,52.400
4.39,30.26,52.600
4.41,30.04,52.800
4.43,30.01,53.000
4.45,29.92,53.200
4.47,29.75,53.400
4.49,29.67,53.600
4.5,29.34,53.800
4.52,29.19,54.000
4.54,29.08,54.200
4.56,28.96,54.400
4.58,28.71,54.600
4.59,28.44,54.800
4.61,28.24,55.000
4.63,24.74,55.200
4.64,20.87,55.400
4.66,19.6,55.600
4.68,18.87,55.800
4.69,18.24,56.000
4.71,17.85,56.200
4.73,17.54,56.400
4.74,17.19,56.600
4.76,16.94,56.800
4.78,16.53,57.000
4.79,16.39,57.200
4.81,16.26,57.400
4.83,16.02,57.600
4.85,15.86,57.800
4.87,15.71,58.000
4.89,15.59,58.200
4.9,15.47,58.400
4.92,15.24,58.600
4.94,15.09,58.800
4.95,14.32,59.000