File: Selected_data/SSP_2022-12-08_B5_OPER.csv
Crossheadmm,LoadN,Timesec
0.0,0.45,0.000
0.07,0.79,0.400
0.13,1.18,0.800
0.2,1.27,1.200
0.27,1.51,1.600
0.33,1.95,2.000
0.4,2.21,2.400
0.47,2.45,2.800
0.53,2.78,3.200
0.6,3.1,3.600
0.67,3.31,4.000
0.73,3.52,4.400
0.8,3.83,4.800
0.87,4.22,5.200
0.93,4.5,5.600
1.0,4.84,6.000
1.07,5.0,6.400
1.13,5.43,6.800
1.2,5.77,7.200
1.27,6.11,7.600
1.33,6.52,8.000
1.4,7.02,8.400
1.47,7.18,8.800
1.53,7.64,9.200
1.6,7.9,9.600
1.67,8.37,10.000
1.73,8.78,10.400
1.8,9.24,10.800
1.87,9.63,11.200
1.93,10.08,11.600
2.0,10.55,12.000
2.07,11.01,12.400
2.13,11.41,12.800
2.2,11.71,13.200
2.27,12.25,13.600
2.33,12.62,14.000
2.4,13.27,14.400
2.47,13.79,14.800
2.53,14.07,15.200
2.6,14.58,15.600
2.67,15.26,16.000
2.73,15.82,16.400
2.8,16.11,16.800
2.87,16.83,17.200
2.93,17.23,17.600
3.0,17.99,18.000
3.07,18.37,18.400
3.13,19.04,18.800
3.2,19.48,19.200
3.27,20.16,19.600
3.33,20.91,20.000
3.4,21.34,20.400
3.47,22.01,20.800
3.53,22.82,21.200
3.6,23.41,21.600
3.67,24.08,22.000
3.73,24.95,22.400
3.8,25.51,22.800
3.87,26.28,23.200
3.93,27.15,23.600
4.0,27.7,24.000
4.07,28.66,24.400
4.13,29.39,24.800
4.2,30.14,25.200
4.27,31.04,25.600
4.33,31.78,26.000
4.4,32.79,26.400
4.47,33.37,26.800
4.53,34.23,27.200
4.6,35.2,27.600
4.67,36.03,28.000
4.73,36.81,28.400
4.8,37.39,28.800
4.87,37.79,29.200
4.93,38.7,29.600
5.0,39.39,30.000
5.07,40.01,30.400
5.13,40.89,30.800
5.2,41.69,31.200
5.27,42.64,31.600
5.33,42.96,32.000
5.4,43.67,32.400
5.47,44.53,32.800
5.53,45.42,33.200
5.6,46.76,33.600
5.67,48.07,34.000
5.73,49.65,34.400
5.8,51.39,34.800
5.87,53.1,35.200
5.93,54.87,35.600
6.0,56.54,36.000
6.07,58.47,36.400
6.13,60.25,36.800
6.2,62.41,37.200
6.27,63.95,37.600
6.33,66.07,38.000
6.4,68.24,38.400
6.47,70.47,38.800
6.53,72.97,39.200
6.6,75.67,39.600
6.67,78.09,40.000
6.73,80.84,40.400
6.8,83.58,40.800
6.87,86.25,41.200
6.93,88.96,41.600
7.0,91.61,42.000
7.07,94.29,42.400
7.13,97.15,42.800
7.2,99.54,43.200
7.27,101.71,43.600
7.33,102.0,44.000
7.4,104.7,44.400
7.47,107.49,44.800
7.53,110.5,45.200
7.6,113.57,45.600
7.67,116.71,46.000
7.73,119.3,46.400
7.8,122.13,46.800
7.87,125.03,47.200
7.93,127.75,47.600
8.0,130.65,48.000
8.07,133.49,48.400
8.13,136.48,48.800
8.2,139.66,49.200
8.27,142.7,49.600
8.33,145.92,50.000
8.4,148.8,50.400
8.47,151.71,50.800
8.53,154.16,51.200
8.6,157.25,51.600
8.67,159.94,52.000
8.73,162.01,52.400
8.8,164.63,52.800
8.87,167.39,53.200
8.93,170.48,53.600
9.0,108.17,54.000
9.07,101.48,54.400
9.13,101.72,54.800
9.2,102.88,55.200
9.27,103.43,55.600
9.33,104.99,56.000
9.4,106.92,56.400
9.47,108.75,56.800
9.53,110.62,57.200
9.6,112.42,57.600
9.67,113.92,58.000
9.73,114.48,58.400
9.8,106.4,58.800
9.87,103.53,59.200
9.93,103.76,59.600
10.0,104.43,60.000
10.07,103.77,60.400
10.13,104.26,60.800
10.2,105.21,61.200
10.27,105.79,61.600
10.33,106.31,62.000
10.4,107.02,62.400
10.47,107.93,62.800
10.53,109.04,63.200
10.6,110.39,63.600
10.67,105.32,64.000
10.73,96.64,64.400
10.8,97.41,64.800
10.87,98.71,65.200
10.93,98.97,65.600
11.0,99.27,66.000
11.07,99.64,66.400
11.13,92.02,66.800
11.2,91.42,67.200
11.27,92.1,67.600
11.33,93.18,68.000
11.4,94.45,68.400
11.47,95.01,68.800
11.53,95.36,69.200
11.6,95.27,69.600
11.67,93.05,70.000
11.73,88.69,70.400
11.8,81.53,70.800
11.87,79.45,71.200
11.93,79.16,71.600
12.0,78.32,72.000
12.07,78.43,72.400
12.13,71.78,72.800
12.2,69.76,73.200
12.27,68.14,73.600
12.33,66.94,74.000
12.4,66.7,74.400
12.47,66.34,74.800
12.53,66.12,75.200
12.6,63.86,75.600
12.67,63.01,76.000
12.73,62.42,76.400
12.8,61.38,76.800
12.87,58.46,77.200
12.93,57.55,77.600
13.0,56.79,78.000
13.07,56.35,78.400
13.13,55.97,78.800
13.2,55.92,79.200
13.27,55.63,79.600
13.33,55.22,80.000
13.4,54.89,80.400
13.47,54.25,80.800
13.53,53.17,81.200
13.6,52.81,81.600
13.67,52.32,82.000
13.73,51.69,82.400
13.8,50.88,82.800
13.87,50.29,83.200
13.93,49.44,83.600
14.0,48.36,84.000
14.07,47.78,84.400
14.13,47.49,84.800
14.2,46.97,85.200
14.27,46.53,85.600
14.33,46.06,86.000
14.4,45.34,86.400
14.47,45.14,86.800
14.53,44.63,87.200
14.6,44.35,87.600
14.67,44.01,88.000
14.73,43.86,88.400
14.8,43.55,88.800
14.87,42.04,89.200
14.93,40.22,89.600
15.0,39.42,90.000
15.07,38.77,90.400
15.13,37.94,90.800
15.2,36.72,91.200
15.27,36.16,91.600
15.33,35.36,92.000
15.4,34.97,92.400
15.47,34.34,92.800