File: Selected_data/SSP_2024-10-27_C1_OPER.csv
Crossheadmm,LoadN,Timesec
0.0812,3.77213,0.279
0.1484,4.51841,0.479
0.2151,5.13069,0.679
0.2817,5.87644,0.879
0.3483,6.50536,1.079
0.415,7.22665,1.279
0.4818,8.01062,1.479
0.5485,8.88401,1.679
0.615,9.65175,1.879
0.682,10.447,2.079
0.7487,11.3485,2.279
0.815,12.193,2.479
0.8821,13.1929,2.679
0.9483,14.3348,2.879
1.0152,15.4642,3.079
1.0817,16.7481,3.279
1.1484,17.9957,3.479
1.2154,19.6719,3.679
1.2822,21.3412,3.879
1.3485,23.0115,4.079
1.4152,24.749,4.279
1.4818,26.641,4.479
1.5487,28.6462,4.679
1.6152,30.4741,4.879
1.6817,32.7169,5.079
1.7487,34.8785,5.279
1.8154,37.1749,5.479
1.8819,39.5194,5.679
1.9483,41.9962,5.879
2.0151,44.607,6.079
2.082,47.1402,6.279
2.1483,49.4852,6.479
2.2149,52.2069,6.679
2.2819,54.9884,6.879
2.3487,57.6979,7.079
2.4152,60.4722,7.279
2.4813,63.5795,7.479
2.5484,66.068,7.679
2.6151,68.7844,7.879
2.6816,71.011,8.079
2.7482,73.5717,8.279
2.8149,74.2927,8.479
2.8816,77.3981,8.679
2.9484,81.2422,8.879
3.0148,85.0262,9.079
3.0818,88.8617,9.279
3.1484,92.3906,9.479
3.2148,94.3344,9.679
3.2818,94.022,9.879
3.3481,97.4851,10.079
3.4149,96.7205,10.279
3.4815,100.357,10.479
3.5482,104.27,10.679
3.6153,108.098,10.879
3.6819,111.935,11.079
3.7483,116.224,11.279
3.8149,119.847,11.479
3.8815,123.774,11.679
3.9484,127.279,11.879
4.0149,129.589,12.079
4.0815,130.025,12.279
4.1484,126.647,12.479
4.2151,129.892,12.679
4.2817,133.767,12.879
4.3481,135.327,13.079
4.415,138.266,13.279
4.4819,141.356,13.479
4.5483,145.125,13.679
4.615,148.902,13.879
4.6819,150.596,14.079
4.7488,153.971,14.279
4.8153,157.669,14.479
4.8814,156.123,14.679
4.9485,158.623,14.879
5.0152,162.222,15.079
5.0818,165.61,15.279
5.1484,164.753,15.479
5.2151,162.67,15.679
5.2819,165.289,15.879
5.3486,159.854,16.079
5.4151,157.089,16.279
5.482,157.84,16.479
5.5486,161.353,16.679
5.615,165.38,16.879
5.682,167.957,17.079
5.7483,167.101,17.279
5.8151,167.412,17.479
5.8816,165.326,17.679
5.9483,167.808,17.879
6.0153,171.456,18.079
6.082,175.202,18.279
6.1483,178.185,18.479
6.2151,180.269,18.679
6.2815,173.216,18.879
6.3485,175.424,19.079
6.4151,166.109,19.279
6.4816,167.095,19.479
6.5485,168.035,19.679
6.6151,168.759,19.879
6.6817,151.074,20.079
6.748,145.175,20.279
6.8149,139.559,20.479
6.8817,124.685,20.679
6.9481,121.642,20.879
7.0149,120.823,21.079
7.0817,120.679,21.279
7.1485,121.653,21.479
7.2151,121.655,21.679
7.2812,122.796,21.879
7.3483,121.655,22.079
7.415,82.4756,22.279
7.4816,79.2398,22.479
7.5482,79.4132,22.679
7.6148,77.8913,22.879
7.6816,79.3964,23.079
7.7484,81.0818,23.279
7.8148,82.6153,23.479
7.8818,84.3561,23.679
7.9483,85.3606,23.879
8.0149,85.6591,24.079
8.0818,86.6686,24.279
8.1481,86.2715,24.479
8.2149,85.6104,24.679
8.2817,86.3099,24.879
8.3482,86.3779,25.079
8.4152,87.4769,25.279
8.4819,88.847,25.479
8.5483,90.003,25.679
8.6151,92.0974,25.879
8.6814,94.3985,26.079
8.7485,96.9032,26.279
8.8151,99.2238,26.479
8.8817,100.498,26.679
8.9485,102.08,26.879
9.0152,103.871,27.079
9.0818,105.792,27.279
9.1483,106.818,27.479
9.2151,107.003,27.679
9.282,109.186,27.879
9.3484,111.883,28.079
9.4153,114.353,28.279
9.4818,116.795,28.479
9.5489,118.431,28.679
9.6154,119.847,28.879
9.6816,122.323,29.079
9.7486,124.891,29.279
9.8153,127.26,29.479
9.8819,129.996,29.679
9.9486,132.583,29.879
10.0151,134.932,30.079
10.082,137.166,30.279
10.1486,137.861,30.479
10.2152,126.59,30.679
10.2819,128.476,30.879
10.3487,129.51,31.079
10.4152,129.903,31.279
10.482,128.027,31.479
10.5482,127.089,31.679
10.6151,126.667,31.879
10.6817,122.517,32.079
10.7483,120.477,32.279
10.8152,120.407,32.479
10.8818,121.655,32.679
10.9482,122.961,32.879
11.015,121.406,33.079
11.0812,120.234,33.279
11.1483,118.559,33.479
11.215,69.0104,33.679
11.2815,66.6837,33.879
11.3483,66.935,34.079
11.415,67.7014,34.279
11.4816,68.553,34.479
11.548,69.6311,34.679
11.6148,70.8074,34.879
11.6816,71.4382,35.079
11.7482,72.3526,35.279
11.8151,72.9602,35.479
11.8815,73.5171,35.679
11.9486,71.9502,35.879
12.0152,71.9172,36.079
12.0813,65.1357,36.279
12.1483,65.1844,36.479
12.2151,65.7875,36.679
12.2816,65.7572,36.879
12.3483,61.9521,37.079
12.4149,61.6928,37.279
12.4817,61.7733,37.479
12.5484,61.5043,37.679
12.615,61.3088,37.879
12.6817,61.2502,38.079
12.7485,61.2304,38.279
12.8152,59.7465,38.479
12.8819,59.3648,38.679
12.9481,58.6403,38.879
13.0151,40.5439,39.079
13.0819,39.6928,39.279
13.1484,38.9434,39.479
13.2153,36.7602,39.679
13.282,35.5661,39.879
13.3485,35.0278,40.079
13.4153,33.8941,40.279
13.4815,33.4404,40.479
13.5487,32.853,40.679
13.6154,31.6907,40.879
13.6819,30.8108,41.079
13.7486,30.5776,41.279
13.8154,30.2913,41.479
13.8819,30.049,41.679
13.9484,29.9566,41.879
14.0152,29.9242,42.079
14.082,29.8929,42.279
14.1486,29.8856,42.479
14.2155,29.8455,42.679
14.2819,29.9038,42.879
14.3155,30.0081,42.979