File: Selected_data/SSP_2025-03-20_D8_NO.csv
Crossheadmm,LoadN,Timesec
0.0336,18.1,0.112
0.1003,36.7365,0.312
0.167,49.6808,0.512
0.2337,60.1714,0.712
0.3004,68.6562,0.912
0.3669,73.5276,1.112
0.4337,73.8062,1.312
0.5003,74.1382,1.512
0.5669,91.882,1.712
0.6333,111.934,1.912
0.7001,128.76,2.112
0.7667,144.16,2.312
0.8335,157.932,2.512
0.9001,168.098,2.712
0.9667,176.952,2.912
1.0334,185.227,3.112
1.1001,194.343,3.312
1.1667,203.479,3.512
1.2335,213.52,3.712
1.2999,224.319,3.912
1.3666,236.695,4.112
1.4334,248.256,4.312
1.5003,254.275,4.512
1.5664,260.824,4.712
1.6335,255.405,4.912
1.7,269.919,5.112
1.7669,272.629,5.312
1.8333,289.132,5.512
1.9001,304.385,5.712
1.9668,320.79,5.912
2.0333,336.491,6.112
2.1,353.431,6.312
2.1668,367.517,6.512
2.2335,370.441,6.712
2.3002,381.461,6.912
2.3668,332.359,7.112
2.4335,341.943,7.312
2.5002,357.009,7.512
2.5669,369.531,7.712
2.6335,385.207,7.912
2.7003,399.099,8.112
2.7669,415.485,8.312
2.8336,431.08,8.512
2.9002,442.524,8.712
2.9669,454.498,8.912
3.0334,468.737,9.112
3.1002,479.458,9.312
3.1668,489.52,9.512
3.2335,500.52,9.712
3.3003,509.624,9.912
3.3668,515.326,10.112
3.4335,522.645,10.312
3.5002,532.311,10.512
3.5669,540.044,10.712
3.6336,549.41,10.912
3.7,558.925,11.112
3.7666,569.449,11.312
3.8336,578.344,11.512
3.9003,585.794,11.712
3.9665,589.285,11.912
4.0336,594.362,12.112
4.1,598.338,12.312
4.1669,601.945,12.512
4.2333,598.637,12.712
4.3001,590.487,12.912
4.3668,580.636,13.112
4.4333,546.346,13.312
4.5001,524.748,13.512
4.5668,505.034,13.712
4.6334,486.879,13.912
4.7001,471.035,14.112
4.7666,454.788,14.312
4.8333,427.037,14.512
4.9001,350.332,14.712
4.9668,329.117,14.912
5.0334,316.57,15.112
5.1002,306.011,15.312
5.1668,295.598,15.512
5.2335,281.745,15.712
5.3001,267.681,15.912
5.3669,259.267,16.112
5.4333,255.056,16.312
5.5001,251.512,16.512
5.5668,244.459,16.712
5.6335,238.803,16.912
5.7001,235.721,17.112
5.7667,232.882,17.312
5.8335,216.268,17.512
5.9001,212.179,17.712
5.9668,205.148,17.912
6.0335,186.525,18.112
6.0999,183.469,18.312
6.1667,180.095,18.512
6.2335,178.074,18.712
6.3002,172.285,18.912
6.3663,169.349,19.112
6.4335,166.608,19.312
6.5,157.833,19.512
6.5669,150.891,19.712
6.6334,129.996,19.912
6.7001,126.111,20.112
6.7669,123.752,20.312
6.8334,119.695,20.512
6.9002,116.78,20.712
6.9669,108.635,20.912
7.0337,106.41,21.112
7.1005,104.381,21.312
7.167,104.09,21.512
7.2337,104.241,21.712
7.3004,104.857,21.912
7.3671,105.244,22.112
7.4337,105.515,22.312
7.5005,106.071,22.512
7.5672,106.514,22.712
7.634,106.963,22.912
7.7005,107.584,23.112
7.7672,107.395,23.312
7.8338,90.2967,23.512
7.9006,89.6982,23.712
7.9672,90.3096,23.912
8.0338,91.39,24.112
8.1006,92.3213,24.312
8.1672,93.4678,24.512
8.2339,94.0307,24.712
8.3004,94.227,24.912
8.3672,95.0637,25.112
8.434,95.3226,25.312
8.5003,95.0514,25.512
8.5669,82.8259,25.712
8.634,81.0798,25.912
8.7005,80.6555,26.112
8.7667,80.5107,26.312
8.8338,80.4551,26.512
8.9004,80.5149,26.712
8.9671,80.0403,26.912
9.0335,79.932,27.112
9.1002,79.8255,27.312
9.1669,74.9521,27.512
9.2335,67.4851,27.712
9.3003,66.0362,27.912
9.3668,65.2298,28.112
9.4337,63.8294,28.312
9.5003,62.282,28.512
9.5668,58.7609,28.712
9.6335,56.7236,28.912
9.7003,55.6816,29.112
9.767,55.1852,29.312
9.8335,54.544,29.512
9.9003,53.723,29.712
9.9669,52.2772,29.912
10.0337,50.4292,30.112
10.1002,48.4254,30.312
10.1669,47.1147,30.512
10.2335,45.7643,30.712
10.3003,44.9267,30.912
10.3669,44.3622,31.112
10.4335,44.1293,31.312
10.5002,43.5972,31.512
10.5669,42.988,31.712
10.6336,41.8563,31.912
10.7,40.4422,32.112
10.7669,38.6725,32.312
10.8336,38.1112,32.512
10.9001,38.1184,32.712
10.9667,37.606,32.912
11.0337,37.0706,33.112
11.1003,36.7329,33.312
11.1666,36.3611,33.512
11.2336,35.8509,33.712
11.3003,34.5071,33.912
11.3672,33.1984,34.112
11.4336,32.3458,34.312
11.5003,31.8594,34.512
11.5671,31.3158,34.712
11.6336,31.509,34.912
11.7004,31.1138,35.112
11.767,31.1766,35.312
11.8339,30.5958,35.512
11.9006,30.787,35.712
11.9672,30.2939,35.912
12.0338,29.8828,36.112
12.1005,29.4482,36.312
12.1674,28.7513,36.512
12.2337,27.9012,36.712
12.3006,26.0125,36.912
12.3672,16.1467,37.112
12.4341,15.0259,37.312
12.5006,13.8588,37.512
12.5671,13.1723,37.712
12.6339,12.1283,37.912
12.7007,11.797,38.112
12.7673,11.6585,38.312
12.8338,11.4904,38.512
12.8673,11.2246,38.612