File: Selected_data/SSP_2025-03-20_D13_OPER.csv
Crossheadmm,LoadN,Timesec
0.034,0.10522,0.113
0.2009,0.475392,0.613
0.3675,0.721628,1.113
0.5341,0.772776,1.613
0.7007,0.887936,2.113
0.8676,1.20461,2.613
1.0342,1.54552,3.113
1.2007,1.81388,3.613
1.3675,2.09177,4.113
1.534,2.42263,4.613
1.7007,2.9328,5.113
1.8672,3.62894,5.613
2.034,4.41111,6.113
2.2006,5.51237,6.613
2.3674,6.93449,7.113
2.5339,8.78265,7.613
2.7007,11.0328,8.113
2.8673,13.7136,8.613
3.0337,16.6235,9.113
3.2006,19.8401,9.613
3.3672,23.5423,10.113
3.5338,27.5244,10.613
3.7007,31.7557,11.113
3.8676,36.3772,11.613
4.034,41.3214,12.113
4.2009,46.0935,12.613
4.3677,51.0431,13.113
4.5341,56.4617,13.613
4.7009,62.5598,14.113
4.8675,68.4035,14.613
5.0342,73.7516,15.113
5.2008,63.3786,15.613
5.3675,63.7252,16.113
5.5342,49.3837,16.613
5.7007,55.8452,17.113
5.8673,62.2965,17.613
6.0338,68.4003,18.113
6.2007,73.9677,18.613
6.3671,77.1664,19.113
6.5338,79.8117,19.613
6.7005,85.2237,20.113
6.8673,92.6472,20.613
7.0338,98.6784,21.113
7.2005,103.539,21.613
7.3671,108.348,22.113
7.5339,114.149,22.613
7.7004,120.626,23.113
7.8669,127.806,23.613
8.0341,136.31,24.113
8.2007,143.048,24.613
8.3674,150.68,25.113
8.5342,142.467,25.613
8.7009,142.465,26.113
8.8674,149.177,26.613
9.0341,154.205,27.113
9.2008,144.114,27.613
9.3676,143.831,28.113
9.5341,136.455,28.613
9.7009,136.083,29.113
9.8675,82.5829,29.613
10.0339,81.2478,30.113
10.2007,72.5483,30.613
10.3673,69.2003,31.113
10.5339,67.1734,31.613
10.7006,63.7249,32.113
10.8673,59.7631,32.613
11.034,57.7619,33.113
11.2005,47.9097,33.613
11.367,46.2849,34.113
11.5339,44.6892,34.613
11.7003,43.1684,35.113
11.8671,42.0585,35.613
12.0338,41.0952,36.113
12.2005,40.1459,36.613
12.3673,38.1886,37.113
12.534,38.257,37.613
12.7005,37.6209,38.113
12.8675,32.1624,38.613
13.034,31.5187,39.113
13.2008,30.4914,39.613
13.3676,30.152,40.113
13.5339,29.79,40.613
13.701,29.6515,41.113
13.8676,29.9168,41.613
14.0341,29.423,42.113
14.2009,28.7997,42.613
14.3675,28.1629,43.113
14.5342,28.0426,43.613
14.7011,27.8244,44.113
14.8672,27.8732,44.613
15.0339,23.967,45.113
15.2008,23.633,45.613
15.3671,22.7297,46.113
15.5339,22.9614,46.613
15.7007,22.7596,47.113
15.8673,20.1369,47.613
16.0339,19.9189,48.113
16.2005,20.0744,48.613
16.3674,19.6643,49.113
16.5339,19.4662,49.613
16.7005,19.2647,50.113
16.8673,19.2802,50.613
17.034,18.7947,51.113
17.2006,18.7468,51.613
17.3675,18.5555,52.113
17.534,18.7671,52.613
17.7008,17.1255,53.113
17.8675,17.4647,53.613
18.034,17.9066,54.113
18.201,17.8005,54.613
18.3673,18.3699,55.113
18.5341,17.6179,55.613
18.701,17.3395,56.113
18.8673,16.7623,56.613
19.0343,16.2582,57.113
19.2008,16.0359,57.613
19.3673,16.1736,58.113
19.5342,15.4018,58.613
19.7006,15.6453,59.113
19.867,15.2512,59.613
20.034,14.4408,60.113
20.2003,13.9084,60.613
20.3673,13.5579,61.113
20.534,13.289,61.613
20.7002,13.0199,62.113
20.8675,12.99,62.613
21.034,12.8811,63.113
21.2006,13.1283,63.613
21.3673,12.8309,64.113
21.5338,13.2076,64.613
21.7008,13.5448,65.113
21.8676,13.5853,65.613
22.0339,13.589,66.113
22.2008,13.8475,66.613
22.3674,14.0937,67.113
22.5341,14.3104,67.613
22.7007,15.0864,68.113
22.8674,15.2589,68.613
23.0346,14.5517,69.113
23.2008,14.5445,69.613
23.3675,14.6976,70.113
23.5345,14.2591,70.613
23.7006,14.1448,71.113
23.8675,14.0426,71.613
24.0342,14.5708,72.113
24.2005,14.9188,72.613
24.3673,14.9641,73.113
24.5339,15.282,73.613
24.7005,15.3343,74.113
24.8673,15.2991,74.613
25.0337,15.1595,75.113
25.2005,12.9266,75.613
25.3673,13.0977,76.113
25.5335,12.5999,76.613
25.7005,11.9988,77.113
25.8674,11.6414,77.613
26.0339,11.3227,78.113
26.2008,11.6377,78.613
26.3671,11.8465,79.113
26.534,11.9823,79.613
26.7008,12.136,80.113
26.8672,12.0661,80.613
27.0339,11.851,81.113
27.201,10.6756,81.613
27.3674,10.5329,82.113
27.5344,10.8134,82.613
27.7008,10.2824,83.113
27.8677,10.2138,83.613
28.0344,10.6752,84.113
28.2006,10.8787,84.613
28.3676,10.7078,85.113
28.5342,10.7311,85.613
28.7007,10.6085,86.113
28.8675,10.7087,86.613
29.0338,10.5815,87.113
29.2005,10.4164,87.613
29.3673,10.3845,88.113
29.5336,10.1202,88.613
29.7005,6.31514,89.113
29.8671,6.15736,89.613
30.0338,6.36971,90.113
30.2008,6.39961,90.613
30.367,6.35573,91.113
30.534,6.61731,91.613
30.7008,6.26655,92.113
30.8671,6.14502,92.613
31.0342,6.02798,93.113
31.2007,6.32426,93.613
31.3674,6.41029,94.113
31.5342,6.56274,94.613
31.7007,6.74363,95.113
31.8676,6.739,95.613
32.0343,6.8264,96.113
32.2007,6.97031,96.613
32.3676,6.64216,97.113
32.5341,6.36064,97.613
32.7006,5.9197,98.113
32.8676,6.19319,98.613
33.0339,5.99989,99.113
33.2008,6.00777,99.613
33.3675,5.90411,100.113
33.5338,5.49145,100.613
33.7007,5.19244,101.113
33.8673,5.06501,101.613
34.0337,5.15415,102.113
34.2004,5.2562,102.613
34.3671,5.31841,103.113
34.5338,5.36712,103.613
34.7006,5.32957,104.113
34.8672,5.22386,104.613
35.0342,5.11026,105.113
35.2006,4.84061,105.613
35.3675,4.7906,106.113
35.5343,4.75428,106.613
35.7007,4.09561,107.113
35.8676,4.32424,107.613
36.0344,4.27571,108.113
36.2009,4.24701,108.613
36.3676,4.27298,109.113
36.5341,3.92192,109.613
36.7008,3.80263,110.113
36.8675,3.95511,110.613
37.0339,3.71931,111.113
37.2008,3.85226,111.613
37.3676,3.67409,112.113
37.5338,3.63003,112.613
37.7006,3.64232,113.113
37.8672,3.47595,113.613
38.0338,3.33732,114.113
38.2007,3.35931,114.613
38.3671,3.22078,115.113
38.5338,3.145,115.613
38.7006,3.11218,116.113
38.867,3.10874,116.613
39.0338,2.99971,117.113
39.2005,2.90712,117.613
39.3672,2.72085,118.113
39.5341,2.37048,118.613
39.7008,2.02779,119.113
39.8674,2.14915,119.613
40.0344,2.03025,120.113
40.2009,1.79312,120.613
40.3676,1.82587,121.113
40.5341,1.7897,121.613
40.7009,1.70508,122.113
40.8677,1.7238,122.613
41.0343,1.84393,123.113
41.2008,1.66349,123.613
41.3673,1.21751,124.113
41.5342,1.36324,124.613
41.7008,1.03653,125.113
41.8671,1.23184,125.613
42.034,1.12586,126.113
42.201,1.0986,126.613
42.3671,1.12135,127.113
42.5341,1.00546,127.613
42.7007,1.1113,128.113
42.8671,1.10209,128.613
43.0339,0.952075,129.113
43.2004,0.601105,129.613
43.3671,0.567381,130.113
43.5339,0.668034,130.613
43.7005,0.749165,131.113
43.8675,0.661231,131.613
44.0341,0.497888,132.113
44.2007,0.515731,132.613
44.3675,0.344996,133.113
44.5341,0.40178,133.613
44.7006,0.336971,134.113
44.8675,0.287992,134.613
45.0342,0.119588,135.113
45.2009,0.108238,135.613
45.3676,0.0955186,136.113
45.5342,0.159442,136.613
45.701,0.101128,137.113
45.8675,0.117992,137.613
46.0342,0.137395,138.113
46.2006,0.147593,138.613
46.3675,0.0263672,139.113
46.534,0.0391134,139.613
46.7007,0.18272,140.113
46.8674,0.13091,140.613
47.0341,0.123948,141.113
47.2007,0.0132785,141.613
47.3672,0.157001,142.113
47.534,0.134942,142.613
47.7005,0.163536,143.113
47.8673,0.157885,143.613
48.0339,0.113561,144.113
48.2007,0.0233593,144.613