File: Selected_data/SSP_2025-03-20_D15_NO.csv
Crossheadmm,LoadN,Timesec
0.0343,6.21547,0.113
0.0677,8.34044,0.213
0.1011,9.85342,0.313
0.1346,11.9347,0.413
0.1679,14.0317,0.513
0.2009,16.4345,0.613
0.2341,18.9655,0.713
0.2673,21.6805,0.813
0.3007,24.359,0.913
0.3341,27.2581,1.013
0.3675,30.1823,1.113
0.4009,33.5247,1.213
0.4342,36.8896,1.313
0.4675,40.5854,1.413
0.5007,43.8324,1.513
0.5339,47.7445,1.613
0.5673,51.597,1.713
0.6007,55.7748,1.813
0.6341,60.049,1.913
0.6676,64.4659,2.013
0.7008,69.0401,2.113
0.7341,73.701,2.213
0.7671,78.2953,2.313
0.8005,82.961,2.413
0.834,87.989,2.513
0.8676,93.0114,2.613
0.9008,98.2182,2.713
0.9341,103.509,2.813
0.9673,109.223,2.913
1.0004,114.851,3.013
1.0337,120.638,3.113
1.0671,126.676,3.213
1.1007,133.173,3.313
1.134,139.087,3.413
1.1672,145.454,3.513
1.2006,151.667,3.613
1.2338,157.79,3.713
1.2672,163.765,3.813
1.3002,169.068,3.913
1.3335,161.279,4.013
1.3671,166.497,4.113
1.4006,173.823,4.213
1.4339,181.207,4.313
1.4672,188.335,4.413
1.5004,194.982,4.513
1.5336,199.926,4.613
1.5669,186.846,4.713
1.6002,186.517,4.813
1.6337,190.064,4.913
1.667,197.289,5.013
1.7003,205.937,5.113
1.7338,214.736,5.213
1.7671,223.318,5.313
1.8003,231.742,5.413
1.8336,240.078,5.513
1.8669,248.16,5.613
1.9004,256.362,5.713
1.9338,264.611,5.813
1.9672,272.744,5.913
2.0005,280.981,6.013
2.0337,289.182,6.113
2.0669,297.446,6.213
2.1,305.173,6.313
2.1333,312.993,6.413
2.1669,321.398,6.513
2.2002,329.68,6.613
2.2338,337.625,6.713
2.2672,345.486,6.813
2.3001,352.9,6.913
2.3335,359.833,7.013
2.367,364.911,7.113
2.4,372.762,7.213
2.4336,381.204,7.313
2.467,389.676,7.413
2.5004,398.229,7.513
2.5339,406.89,7.613
2.5671,415.103,7.713
2.6002,423.218,7.813
2.6335,431.615,7.913
2.6667,440.086,8.013
2.7001,448.592,8.113
2.7335,457.066,8.213
2.7669,465.478,8.313
2.8003,474.109,8.413
2.8336,482.49,8.513
2.8669,490.813,8.613
2.9001,499.316,8.713
2.9334,507.809,8.813
2.9668,516.2,8.913
3.0001,524.62,9.013
3.0336,533.419,9.113
3.0671,541.947,9.213
3.1003,550.583,9.313
3.1335,559.074,9.413
3.1667,566.896,9.513
3.2,573.681,9.613
3.2335,580.83,9.713
3.267,589.225,9.813
3.3003,597.08,9.913
3.3336,605.018,10.013
3.3668,613.012,10.113
3.4,620.54,10.213
3.4334,628.162,10.313
3.4668,635.367,10.413
3.5003,640.141,10.513
3.5343,28.9546,10.613
3.5675,2.6267,10.713
3.6009,3.77294,10.813
3.6342,3.32065,10.913
3.6675,3.51848,11.013
3.7006,3.64715,11.113
3.7338,4.06144,11.213
3.7674,4.47906,11.313
3.801,4.85114,11.413
3.8343,5.13807,11.513
3.8676,5.36574,11.613
3.9008,5.66841,11.713
3.9341,6.08672,11.813
3.9674,6.39148,11.913
4.0007,7.17166,12.013
4.0341,7.1089,12.113
4.0675,7.50008,12.213
4.1008,8.00646,12.313
4.1344,8.2591,12.413
4.1676,8.657,12.513
4.2009,8.97364,12.613
4.2341,9.39387,12.713
4.2674,9.53984,12.813
4.3009,9.77285,12.913
4.3343,10.0471,13.013
4.3677,10.3112,13.113
4.4012,10.5505,13.213
4.4343,10.6114,13.313
4.4676,10.7519,13.413
4.5007,11.06,13.513
4.5339,10.9339,13.613
4.5673,11.1116,13.713
4.6008,11.1482,13.813
4.6345,11.5039,13.913
4.6678,10.9375,14.013
4.7008,10.8471,14.113
4.7342,11.0347,14.213
4.7676,10.9397,14.313
4.8006,10.8903,14.413
4.8341,10.8669,14.513
4.8676,10.4874,14.613
4.901,10.6654,14.713
4.9345,10.679,14.813
4.9677,10.7811,14.913
5.0008,10.6372,15.013
5.0341,10.6657,15.113
5.0672,10.9088,15.213
5.1006,10.7003,15.313
5.1341,10.81,15.413
5.1676,10.6028,15.513
5.2009,10.407,15.613
5.2342,10.3363,15.713
5.2675,10.2437,15.813
5.3007,10.279,15.913
5.3338,10.4096,16.013
5.3672,10.4324,16.113
5.4007,10.4697,16.213
5.4341,10.5512,16.313
5.4675,10.6389,16.413
5.5008,10.8691,16.513
5.534,10.841,16.613
5.5672,10.6772,16.713
5.6005,10.6461,16.813
5.6339,10.5824,16.913
5.6675,10.4731,17.013
5.7007,10.3999,17.113
5.734,10.1872,17.213
5.7672,10.2179,17.313
5.8004,10.141,17.413
5.8337,10.1077,17.513
5.8671,9.95438,17.613
5.9005,10.031,17.713
5.934,9.70501,17.813
5.9673,9.6961,17.913
6.0006,9.61383,18.013
6.0339,9.49457,18.113