File: Selected_data/SSP_2022-12-08_B1_OPER.csv
Crossheadmm,LoadN,Timesec
0.0,0.67,0.000
0.05,0.88,0.300
0.1,1.2,0.600
0.15,1.49,0.900
0.2,1.63,1.200
0.25,1.76,1.500
0.3,2.0,1.800
0.35,2.41,2.100
0.4,2.62,2.400
0.45,3.03,2.700
0.5,3.35,3.000
0.55,3.64,3.300
0.6,4.09,3.600
0.65,4.42,3.900
0.7,4.78,4.200
0.75,5.06,4.500
0.8,5.34,4.800
0.85,5.83,5.100
0.9,6.18,5.400
0.95,6.73,5.700
1.0,6.93,6.000
1.05,7.39,6.300
1.1,7.82,6.600
1.15,8.02,6.900
1.2,8.36,7.200
1.25,8.7,7.500
1.3,9.06,7.800
1.35,9.43,8.100
1.4,9.72,8.400
1.45,10.06,8.700
1.5,10.31,9.000
1.55,10.64,9.300
1.6,10.98,9.600
1.65,11.25,9.900
1.7,11.65,10.200
1.75,11.99,10.500
1.8,12.44,10.800
1.85,12.94,11.100
1.9,13.3,11.400
1.95,13.69,11.700
2.0,14.09,12.000
2.05,14.57,12.300
2.1,14.92,12.600
2.15,15.44,12.900
2.2,15.78,13.200
2.25,16.46,13.500
2.3,16.87,13.800
2.35,17.47,14.100
2.4,17.87,14.400
2.45,18.53,14.700
2.5,19.0,15.000
2.55,19.4,15.300
2.6,20.16,15.600
2.65,20.7,15.900
2.7,21.21,16.200
2.75,21.78,16.500
2.8,22.41,16.800
2.85,23.03,17.100
2.9,23.56,17.400
2.95,24.28,17.700
3.0,24.83,18.000
3.05,25.55,18.300
3.1,26.06,18.600
3.15,26.94,18.900
3.2,27.41,19.200
3.25,28.08,19.500
3.3,28.76,19.800
3.35,29.57,20.100
3.4,30.31,20.400
3.45,31.0,20.700
3.5,31.94,21.000
3.55,32.57,21.300
3.6,33.54,21.600
3.65,34.42,21.900
3.7,35.36,22.200
3.75,36.19,22.500
3.8,37.2,22.800
3.85,38.26,23.100
3.9,39.19,23.400
3.95,40.32,23.700
4.0,41.34,24.000
4.05,42.68,24.300
4.1,43.7,24.600
4.15,44.86,24.900
4.2,46.05,25.200
4.25,47.12,25.500
4.3,48.36,25.800
4.35,49.58,26.100
4.4,50.78,26.400
4.45,51.84,26.700
4.5,53.1,27.000
4.55,54.24,27.300
4.6,55.48,27.600
4.65,56.63,27.900
4.7,57.64,28.200
4.75,58.6,28.500
4.8,59.75,28.800
4.85,60.6,29.100
4.9,61.29,29.400
4.95,61.88,29.700
5.0,63.12,30.000
5.05,64.63,30.300
5.1,65.85,30.600
5.15,67.16,30.900
5.2,68.41,31.200
5.25,69.95,31.500
5.3,71.56,31.800
5.35,73.16,32.100
5.4,74.63,32.400
5.45,76.21,32.700
5.5,77.72,33.000
5.55,79.27,33.300
5.6,80.2,33.600
5.65,81.79,33.900
5.7,83.45,34.200
5.75,84.96,34.500
5.8,86.45,34.800
5.85,88.11,35.100
5.9,89.53,35.400
5.95,90.86,35.700
6.0,92.39,36.000
6.05,93.58,36.300
6.1,95.28,36.600
6.15,96.9,36.900
6.2,98.65,37.200
6.25,100.19,37.500
6.3,101.84,37.800
6.35,103.5,38.100
6.4,105.09,38.400
6.45,106.67,38.700
6.5,108.46,39.000
6.55,110.07,39.300
6.6,111.75,39.600
6.65,112.98,39.900
6.7,114.77,40.200
6.75,116.31,40.500
6.8,117.92,40.800
6.85,119.65,41.100
6.9,121.37,41.400
6.95,122.51,41.700
7.0,123.9,42.000
7.05,125.06,42.300
7.1,126.6,42.600
7.15,128.21,42.900
7.2,128.06,43.200
7.25,129.16,43.500
7.3,130.31,43.800
7.35,131.36,44.100
7.4,132.58,44.400
7.45,133.64,44.700
7.5,134.05,45.000
7.55,131.4,45.300
7.6,130.79,45.600
7.65,130.87,45.900
7.7,131.61,46.200
7.75,132.54,46.500
7.8,132.98,46.800
7.85,133.14,47.100
7.9,133.35,47.400
7.95,133.38,47.700
8.0,133.01,48.000
8.05,133.66,48.300
8.1,134.56,48.600
8.15,135.77,48.900
8.2,136.82,49.200
8.25,137.88,49.500
8.3,138.83,49.800
8.35,139.9,50.100
8.4,141.17,50.400
8.45,142.04,50.700
8.5,142.62,51.000
8.55,143.12,51.300
8.6,135.82,51.600
8.65,131.09,51.900
8.7,129.74,52.200
8.75,128.94,52.500
8.8,127.9,52.800
8.85,125.61,53.100
8.9,114.08,53.400
8.95,106.37,53.700
9.0,103.99,54.000
9.05,102.59,54.300
9.1,101.61,54.600
9.15,98.22,54.900
9.2,97.86,55.200
9.25,98.27,55.500
9.3,99.11,55.800
9.35,100.01,56.100
9.4,100.27,56.400
9.45,100.28,56.700
9.5,99.7,57.000
9.55,99.79,57.300
9.6,99.41,57.600
9.65,99.28,57.900
9.7,99.53,58.200
9.75,99.99,58.500
9.8,100.58,58.800
9.85,100.33,59.100
9.9,100.61,59.400
9.95,100.7,59.700
10.0,100.72,60.000
10.05,100.21,60.300
10.1,96.74,60.600
10.15,94.56,60.900
10.2,93.71,61.200
10.25,91.85,61.500
10.3,86.99,61.800
10.35,47.53,62.100
10.4,45.32,62.400
10.45,43.47,62.700
10.5,41.83,63.000
10.55,40.93,63.300
10.6,38.42,63.600
10.65,36.79,63.900
10.7,34.99,64.200
10.75,33.44,64.500
10.8,32.31,64.800
10.85,32.18,65.100
10.9,31.87,65.400
10.95,31.72,65.700
11.0,31.58,66.000
11.05,31.13,66.300
11.1,30.85,66.600
11.15,30.49,66.900
11.2,30.45,67.200
11.25,30.28,67.500
11.3,30.04,67.800
11.35,30.09,68.100
11.4,30.49,68.400
11.45,30.42,68.700
11.5,30.56,69.000
11.55,30.78,69.300
11.6,30.78,69.600
11.65,30.63,69.900
11.7,30.81,70.200
11.75,30.72,70.500
11.8,30.96,70.800
11.85,30.69,71.100
11.9,30.89,71.400
11.95,31.11,71.700
12.0,31.18,72.000
12.05,31.13,72.300
12.1,31.44,72.600
12.15,31.74,72.900
12.2,31.87,73.200
12.25,31.84,73.500
12.3,31.85,73.800
12.35,32.11,74.100
12.4,32.25,74.400
12.45,32.6,74.700
12.5,32.97,75.000
12.55,33.2,75.300
12.6,33.77,75.600
12.65,33.86,75.900
12.7,33.91,76.200
12.75,34.13,76.500
12.8,34.22,76.800
12.85,34.3,77.100
12.9,34.32,77.400
12.95,34.53,77.700
13.0,34.66,78.000
13.05,35.05,78.300
13.1,35.15,78.600
13.15,35.58,78.900
13.2,35.75,79.200
13.25,36.14,79.500
13.3,36.42,79.800
13.35,36.51,80.100
13.4,36.6,80.400
13.45,36.68,80.700
13.5,36.73,81.000
13.55,36.71,81.300
13.6,36.61,81.600
13.65,36.59,81.900
13.7,36.57,82.200
13.75,36.65,82.500
13.8,36.42,82.800
13.85,35.66,83.100
13.9,35.17,83.400
13.95,34.66,83.700
14.0,34.45,84.000
14.05,33.54,84.300
14.09,28.46,84.600