File: Selected_data/SSP_2025-03-17_D3_NO.csv
Crossheadmm,LoadN,Timesec
0.034,1.51458,0.114
0.0672,3.18448,0.214
0.1008,4.29608,0.314
0.1342,5.29124,0.414
0.1676,6.50437,0.514
0.2011,7.36283,0.614
0.2344,8.19778,0.714
0.2677,9.16112,0.814
0.3009,9.90472,0.914
0.3341,10.9763,1.014
0.3674,11.8073,1.114
0.4009,12.4429,1.214
0.4343,13.2165,1.314
0.4676,14.0688,1.414
0.5011,14.9924,1.514
0.5346,15.6478,1.614
0.5677,16.6236,1.714
0.6006,17.3571,1.814
0.6339,18.1738,1.914
0.6675,19.0855,2.014
0.7011,19.894,2.114
0.7344,20.7049,2.214
0.7677,21.6215,2.314
0.8012,22.4438,2.414
0.8345,23.4532,2.514
0.8674,24.2741,2.614
0.9007,25.1849,2.714
0.934,26.0736,2.814
0.9676,27.0666,2.914
1.001,28.0691,3.014
1.0344,28.9614,3.114
1.0677,30.0666,3.214
1.1009,31.0314,3.314
1.1341,32.1669,3.414
1.1675,33.2287,3.514
1.201,34.3711,3.614
1.2344,35.3755,3.714
1.2675,36.5943,3.814
1.3009,37.8564,3.914
1.3344,38.9649,4.014
1.3677,40.1839,4.114
1.4008,41.406,4.214
1.434,42.7095,4.314
1.4675,43.7968,4.414
1.501,45.2849,4.514
1.5346,46.476,4.614
1.5679,47.9891,4.714
1.6012,49.3802,4.814
1.6343,50.704,4.914
1.6672,52.061,5.014
1.7004,53.5039,5.114
1.7341,54.8318,5.214
1.7676,55.961,5.314
1.8011,57.0977,5.414
1.8345,58.3383,5.514
1.8677,59.5974,5.614
1.9006,60.7659,5.714
1.934,62.3109,5.814
1.9674,63.7618,5.914
2.0009,65.234,6.014
2.0344,66.8321,6.114
2.0678,68.2872,6.214
2.1013,69.7664,6.314
2.1345,71.2576,6.414
2.1677,72.7578,6.514
2.2009,74.2964,6.614
2.2342,75.7805,6.714
2.2676,77.3001,6.814
2.3011,78.8374,6.914
2.3345,80.41,7.014
2.3679,82.1607,7.114
2.4013,83.7419,7.214
2.4343,85.293,7.314
2.4676,87.0467,7.414
2.501,88.6103,7.514
2.5343,90.2959,7.614
2.5678,91.9562,7.714
2.6013,93.8091,7.814
2.6346,95.3591,7.914
2.6679,96.8691,8.014
2.7012,98.2289,8.114
2.7344,99.6164,8.214
2.7677,100.959,8.314
2.801,101.867,8.414
2.8345,102.025,8.514
2.8678,102.208,8.614
2.9014,101.255,8.714
2.9349,102.309,8.814
2.9678,103.347,8.914
3.0009,104.391,9.014
3.0343,105.653,9.114
3.0677,106.875,9.214
3.1013,107.714,9.314
3.1347,107.633,9.414
3.1679,107.266,9.514
3.2015,107.191,9.614
3.2347,106.964,9.714
3.2677,106.288,9.814
3.3009,106.087,9.914
3.3342,106.291,10.014
3.3677,109.938,10.114
3.4012,114.92,10.214
3.4346,118.657,10.314
3.4679,122.028,10.414
3.5011,124.45,10.514
3.5344,127.062,10.614
3.5677,129.296,10.714
3.6011,131.484,10.814
3.6345,133.485,10.914
3.6677,135.633,11.014
3.7011,137.713,11.114
3.7346,139.544,11.214
3.7679,141.472,11.314
3.8009,143.446,11.414
3.8341,145.769,11.514
3.8675,147.922,11.614
3.9011,150.045,11.714
3.9347,152.403,11.814
3.968,153.837,11.914
4.0012,155.441,12.014
4.0344,157.567,12.114
4.0671,159.568,12.214
4.1005,161.283,12.314
4.1341,163.423,12.414
4.1676,165.033,12.514
4.201,165.91,12.614
4.2343,166.97,12.714
4.2675,167.542,12.814
4.3005,168.358,12.914
4.3338,169.528,13.014
4.3673,171.085,13.114
4.4006,173.188,13.214
4.4342,175.623,13.314
4.4677,177.869,13.414
4.5011,180.491,13.514
4.5343,183.303,13.614
4.5675,186.264,13.714
4.6007,189.066,13.814
4.6339,192.076,13.914
4.6673,194.919,14.014
4.7008,197.613,14.114
4.7342,200.197,14.214
4.7676,202.471,14.314
4.8009,204.605,14.414
4.834,207.239,14.514
4.8673,207.854,14.614
4.9006,209.614,14.714
4.934,210.068,14.814
4.9675,212.42,14.914
5.0009,214.827,15.014
5.0343,214.033,15.114
5.0677,140.52,15.214
5.1009,131.463,15.314
5.1341,131.107,15.414
5.1674,129.855,15.514
5.2006,125.533,15.614
5.2341,127.366,15.714
5.2675,129.947,15.814
5.3011,132.932,15.914
5.3345,136.052,16.014
5.3674,131.538,16.114
5.4006,133.482,16.214
5.434,133.469,16.314
5.4673,136.238,16.414
5.501,138.983,16.514
5.5343,139.387,16.614
5.5676,134.464,16.714
5.6011,136.57,16.814
5.6344,69.0222,16.914
5.6673,67.8546,17.014
5.7006,68.9722,17.114
5.7339,70.1601,17.214
5.7675,71.5567,17.314
5.8009,73.0314,17.414
5.8343,74.5339,17.514
5.8676,44.0187,17.614
5.9009,1.98787,17.714
5.9341,1.42527,17.814
5.9675,1.5839,17.914
6.0008,1.72604,18.014
6.0342,1.51051,18.114
6.0674,1.7447,18.214
6.101,1.91192,18.314
6.1344,1.82704,18.414
6.1677,2.0632,18.514
6.2008,2.09294,18.614
6.234,2.17602,18.714
6.2674,2.33699,18.814
6.301,2.4212,18.914
6.3346,2.29682,19.014
6.3678,2.44554,19.114
6.4011,2.53115,19.214
6.4342,2.55013,19.314
6.4671,2.70732,19.414
6.5006,2.7355,19.514
6.5342,2.99434,19.614
6.5677,3.03859,19.714
6.6012,3.06354,19.814
6.6345,3.23577,19.914
6.6678,3.20621,20.014
6.7007,3.3799,20.114
6.7341,3.40051,20.214
6.7676,3.46778,20.314
6.8009,3.64318,20.414
6.8345,1.69453,20.514
6.868,1.42097,20.614
6.9013,1.48335,20.714
6.9346,1.54995,20.814
6.9678,1.60313,20.914
7.0011,1.61902,21.014
7.0344,1.53216,21.114
7.0677,1.5117,21.214
7.1011,1.56977,21.314
7.1346,1.55023,21.414
7.168,1.53017,21.514
7.2013,1.4813,21.614
7.2344,1.56453,21.714
7.2678,1.58197,21.814
7.3011,1.45157,21.914
7.3344,1.54952,22.014
7.3679,1.5315,22.114
7.4014,1.48141,22.214
7.4347,1.63003,22.314
7.468,1.43126,22.414
7.5012,1.50611,22.514
7.5346,1.50456,22.614