File: Selected_data/SSP_2025-03-19_D11_OPER.csv
Crossheadmm,LoadN,Timesec
0.0338,1.29318,0.112
0.1674,1.46389,0.512
0.3005,1.82496,0.912
0.4339,2.19943,1.312
0.5672,2.6354,1.712
0.7006,3.27509,2.112
0.8339,3.98093,2.512
0.9675,5.16744,2.912
1.1006,6.24206,3.312
1.234,7.77354,3.712
1.3669,9.78503,4.112
1.5008,12.1161,4.512
1.6339,14.8956,4.912
1.7674,18.4716,5.312
1.9005,22.717,5.712
2.0341,27.281,6.112
2.1674,32.1735,6.512
2.3008,37.2876,6.912
2.4339,42.6674,7.312
2.5676,48.1969,7.712
2.7007,53.9495,8.112
2.8342,59.9241,8.512
2.9674,65.8135,8.912
3.1009,72.041,9.312
3.2339,78.3343,9.712
3.3677,84.4044,10.112
3.5007,90.3475,10.512
3.6342,96.0279,10.912
3.767,100.873,11.312
3.901,106.468,11.712
4.0339,112.197,12.112
4.1675,117.523,12.512
4.3005,122.225,12.912
4.434,125.028,13.312
4.5672,126.562,13.712
4.7005,130.338,14.112
4.8336,129.326,14.512
4.9672,136.465,14.912
5.1003,136.89,15.312
5.2339,141.482,15.712
5.367,145.818,16.112
5.5005,150.651,16.512
5.6336,143.572,16.912
5.7674,87.9829,17.312
5.9005,42.975,17.712
6.0341,44.2392,18.112
6.1669,47.1779,18.512
6.3009,49.8728,18.912
6.4339,53.3989,19.312
6.5676,55.8477,19.712
6.7006,57.1974,20.112
6.8342,61.1223,20.512
6.9674,64.548,20.912
7.1008,63.8417,21.312
7.2339,65.6003,21.712
7.3676,68.4718,22.112
7.5005,71.7434,22.512
7.6342,72.9084,22.912
7.7673,77.5854,23.312
7.9008,82.0313,23.712
8.0338,86.7685,24.112
8.1677,86.8223,24.512
8.3006,85.8088,24.912
8.4342,90.4572,25.312
8.5668,94.5024,25.712
8.701,98.9246,26.112
8.8338,101.761,26.512
8.9675,102.336,26.912
9.1004,105.571,27.312
9.234,108.638,27.712
9.3671,111.464,28.112
9.5004,112.799,28.512
9.6335,116.936,28.912
9.7672,121.398,29.312
9.9001,125.224,29.712
10.0339,128.683,30.112
10.1669,132.74,30.512
10.3006,126.955,30.912
10.4336,129.434,31.312
10.5674,120.09,31.712
10.7006,126.092,32.112
10.8342,131.28,32.512
10.9669,136.886,32.912
11.1009,140.652,33.312
11.2338,145.902,33.712
11.3675,150.453,34.112
11.5005,153.936,34.512
11.6341,158.371,34.912
11.7672,160.527,35.312
11.9006,152.259,35.712
12.0338,154.763,36.112
12.1676,99.8176,36.512
12.3005,74.0643,36.912
12.4343,74.9515,37.312
12.5673,75.6946,37.712
12.7009,78.155,38.112
12.8339,80.7575,38.512
12.9676,74.1596,38.912
13.1008,75.8387,39.312
13.2343,78.4016,39.712
13.3668,81.3946,40.112
13.501,80.4948,40.512
13.6338,83.2386,40.912
13.7675,86.1465,41.312
13.9005,88.8631,41.712
14.0339,90.3672,42.112
14.167,90.7749,42.512
14.3004,90.2933,42.912
14.4336,70.8169,43.312
14.5672,72.2058,43.712
14.7003,71.73,44.112
14.834,70.6621,44.512
14.967,72.5082,44.912
15.1006,73.6361,45.312
15.2337,75.1115,45.712
15.3674,75.5307,46.112
15.5008,76.087,46.512
15.6343,77.4969,46.912
15.7669,78.5891,47.312
15.901,79.8629,47.712
16.0339,81.1694,48.112
16.1677,74.2746,48.512
16.3007,58.219,48.912
16.4342,55.2134,49.312
16.5674,54.3918,49.712
16.7007,52.5244,50.112
16.834,51.1262,50.512
16.9676,51.1243,50.912
17.1007,52.1871,51.312
17.2343,52.4796,51.712
17.3673,52.153,52.112
17.5009,52.0806,52.512
17.6339,48.0411,52.912
17.7675,45.8906,53.312
17.9009,44.4487,53.712
18.0344,44.1429,54.112
18.1668,42.3975,54.512
18.3008,41.7043,54.912
18.4337,41.2223,55.312
18.5674,40.3741,55.712
18.7004,39.4096,56.112
18.8339,39.2663,56.512
18.9671,39.357,56.912
19.1004,39.1114,57.312
19.2337,39.0978,57.712
19.3673,38.2124,58.112
19.5004,37.2871,58.512
19.634,35.0636,58.912
19.7672,33.8383,59.312
19.9006,33.016,59.712
20.0337,31.7169,60.112
20.1673,31.5588,60.512
20.3008,31.377,60.912
20.4344,31.6001,61.312
20.5671,31.0966,61.712
20.701,31.3021,62.112
20.834,30.8596,62.512
20.9678,30.9477,62.912
21.1008,31.0661,63.312
21.2343,29.6658,63.712
21.3675,29.1585,64.112
21.5008,29.567,64.512
21.6341,27.1119,64.912
21.7676,26.298,65.312
21.9007,26.6845,65.712
22.0343,26.4023,66.112
22.1674,26.514,66.512
22.3009,25.9966,66.912
22.4339,26.294,67.312
22.5674,26.2543,67.712
22.7008,26.1287,68.112
22.8343,26.4028,68.512
22.967,26.1948,68.912
23.1008,25.7144,69.312
23.2338,24.8006,69.712
23.3675,23.3165,70.112
23.5005,21.7804,70.512
23.6339,21.4534,70.912
23.7671,20.8905,71.312
23.9004,18.0055,71.712
24.0338,16.8082,72.112
24.1673,16.7068,72.512
24.3004,16.4406,72.912
24.434,16.2595,73.312
24.5673,16.0123,73.712
24.7008,15.5763,74.112
24.8338,15.4101,74.512
24.9673,15.1961,74.912
25.1009,15.2658,75.312
25.2345,15.1731,75.712
25.3672,14.9702,76.112
25.501,14.6419,76.512
25.6341,14.2694,76.912
25.7677,14.222,77.312
25.9009,14.1707,77.712
26.0342,14.1704,78.112
26.1675,14.2142,78.512
26.3007,14.335,78.912
26.4341,14.4943,79.312
26.5674,14.5205,79.712
26.7006,14.3502,80.112
26.8341,14.1245,80.512
26.9673,13.7843,80.912
27.1007,13.8918,81.312
27.2339,14.0975,81.712
27.3672,14.3668,82.112
27.5008,14.6274,82.512
27.6343,14.6779,82.912
27.7672,14.8852,83.312
27.9008,15.0517,83.712
28.0339,14.3565,84.112
28.1673,14.2231,84.512
28.3006,14.3451,84.912
28.4338,14.6448,85.312
28.5672,14.6818,85.712
28.7005,14.6705,86.112
28.834,14.6361,86.512
28.9673,14.6282,86.912
29.1005,14.6733,87.312
29.234,14.7276,87.712
29.3674,14.5509,88.112
29.5008,13.8609,88.512
29.6339,13.9959,88.912
29.7673,14.0944,89.312
29.9009,14.2406,89.712
30.0345,13.9463,90.112
30.1674,13.3543,90.512
30.3009,13.1449,90.912
30.4341,12.7615,91.312
30.5676,12.9622,91.712
30.701,13.0594,92.112
30.8341,13.2489,92.512
30.9675,12.9602,92.912
31.1007,12.8066,93.312
31.2343,12.2522,93.712
31.3675,12.2427,94.112
31.5007,12.1843,94.512
31.6341,12.1584,94.912
31.7675,12.0468,95.312
31.9008,11.865,95.712
32.0339,11.0271,96.112
32.1672,10.9395,96.512
32.3008,11.1353,96.912
32.4342,11.2761,97.312
32.5672,10.6133,97.712
32.7006,10.6034,98.112
32.8338,10.7754,98.512
32.9673,11.1604,98.912
33.1006,11.1581,99.312
33.2337,9.57397,99.712
33.3672,9.47742,100.112
33.5005,9.63624,100.512
33.6341,10.081,100.912
33.7674,9.73998,101.312
33.9006,9.23586,101.712
34.0341,9.3069,102.112
34.1676,9.27961,102.512
34.3009,9.29724,102.912
34.434,9.54822,103.312
34.5674,9.65348,103.712
34.701,9.6144,104.112
34.8344,9.70097,104.512
34.9675,9.61492,104.912
35.1009,9.45962,105.312
35.2342,9.58515,105.712
35.3676,9.64847,106.112
35.5011,9.93457,106.512
35.6341,9.89871,106.912
35.7676,10.1812,107.312
35.9008,10.3965,107.712
36.0343,10.3973,108.112
36.1675,10.4514,108.512
36.3006,10.2775,108.912
36.434,10.1309,109.312
36.5674,10.1496,109.712
36.7007,9.72021,110.112
36.8338,9.74262,110.512
36.9671,9.28732,110.912
37.1007,9.40669,111.312
37.2342,9.37495,111.712
37.3672,9.47109,112.112
37.5005,9.65012,112.512
37.6339,9.56767,112.912
37.7339,9.71024,113.212